2023-01-05	11:08:49	Data rate [Hz]	10	
Sample Nb.	Measurement time	Voltage	Pressure	Weight
[-]	[s]	[V]	[Pa]	[g]
1.000000	0.100176	2.710910	399190.414267	0.000000
2.000000	0.199994	2.711014	399215.606242	0.000000
3.000000	0.300041	2.711537	399341.566114	0.000000
4.000000	0.400040	2.711223	399265.990191	447.470000
5.000000	0.500042	2.711119	399240.798216	447.560000
6.000000	0.600075	2.711119	399240.798216	447.640000
7.000000	0.700039	2.711014	399215.606242	447.720000
8.000000	0.800039	2.711223	399265.990191	447.790000
9.000000	0.900009	2.711328	399291.182165	447.860000
10.000000	0.999960	2.711223	399265.990191	447.920000
11.000000	1.100008	2.711223	399265.990191	448.000000
12.000000	1.199993	2.711223	399265.990191	448.090000
13.000000	1.300014	2.710805	399165.222293	448.200000
14.000000	1.400127	2.710701	399140.030318	448.290000
15.000000	1.500126	2.711014	399215.606242	448.390000
16.000000	1.600087	2.711119	399240.798216	448.480000
17.000000	1.700111	2.711014	399215.606242	448.560000
18.000000	1.800109	2.711223	399265.990191	448.630000
19.000000	1.900084	2.710701	399140.030318	448.700000
20.000000	2.000101	2.711223	399265.990191	448.770000
21.000000	2.100086	2.710910	399190.414267	448.850000
22.000000	2.200052	2.711014	399215.606242	448.930000
23.000000	2.300116	2.711119	399240.798216	449.000000
24.000000	2.400086	2.710596	399114.838344	449.090000
25.000000	2.500034	2.711014	399215.606242	449.200000
26.000000	2.600064	2.710910	399190.414267	449.300000
27.000000	2.700030	2.710701	399140.030318	449.380000
28.000000	2.799999	2.710805	399165.222293	449.460000
29.000000	2.900086	2.711119	399240.798216	449.540000
30.000000	3.000055	2.711432	399316.374140	449.600000
31.000000	3.099982	2.711432	399316.374140	449.680000
32.000000	3.200039	2.710910	399190.414267	449.760000
33.000000	3.300032	2.711432	399316.374140	449.840000
34.000000	3.399974	2.711119	399240.798216	449.920000
35.000000	3.499952	2.710492	399089.646369	450.010000
36.000000	3.599973	2.710596	399114.838344	450.100000
37.000000	3.699983	2.711014	399215.606242	450.200000
38.000000	3.799996	2.711014	399215.606242	450.310000
39.000000	3.899975	2.711014	399215.606242	450.390000
40.000000	3.999950	2.711014	399215.606242	450.470000
41.000000	4.099928	2.711014	399215.606242	450.540000
42.000000	4.199933	2.711119	399240.798216	450.590000
43.000000	4.299865	2.711119	399240.798216	450.670000
44.000000	4.399970	2.710387	399064.454394	450.740000
45.000000	4.499965	2.710178	399014.070445	450.830000
46.000000	4.599883	2.711223	399265.990191	450.920000
47.000000	4.699878	2.710805	399165.222293	451.000000
48.000000	4.799942	2.710701	399140.030318	451.100000
49.000000	4.899936	2.711014	399215.606242	451.200000
50.000000	4.999928	2.710910	399190.414267	451.300000
51.000000	5.099914	2.710701	399140.030318	451.380000
52.000000	5.199850	2.710805	399165.222293	451.450000
53.000000	5.299835	2.710910	399190.414267	451.520000
54.000000	5.399860	2.711014	399215.606242	451.580000
55.000000	5.499823	2.710910	399190.414267	451.660000
56.000000	5.599837	2.710805	399165.222293	451.750000
57.000000	5.699817	2.710596	399114.838344	451.830000
58.000000	5.799805	2.711014	399215.606242	451.920000
59.000000	5.899814	2.710701	399140.030318	452.020000
60.000000	5.999800	2.711328	399291.182165	452.110000
61.000000	6.099838	2.710701	399140.030318	452.200000
62.000000	6.199925	2.711119	399240.798216	452.280000
63.000000	6.299795	2.710805	399165.222293	452.360000
64.000000	6.399786	2.710701	399140.030318	452.430000
65.000000	6.499775	2.710596	399114.838344	452.490000
66.000000	6.599792	2.711119	399240.798216	452.560000
67.000000	6.699771	2.711328	399291.182165	452.640000
68.000000	6.799757	2.711223	399265.990191	452.730000
69.000000	6.899742	2.711119	399240.798216	452.830000
70.000000	6.999764	2.710910	399190.414267	452.930000
71.000000	7.099763	2.711223	399265.990191	453.020000
72.000000	7.199721	2.711119	399240.798216	453.110000
73.000000	7.299562	2.710701	399140.030318	453.190000
74.000000	7.399776	2.711223	399265.990191	453.270000
75.000000	7.499732	2.711119	399240.798216	453.340000
76.000000	7.599724	2.710492	399089.646369	453.420000
77.000000	7.699709	2.710910	399190.414267	453.490000
78.000000	7.799691	2.710492	399089.646369	453.550000
79.000000	7.899691	2.710701	399140.030318	453.630000
80.000000	7.999700	2.710910	399190.414267	453.730000
81.000000	8.099682	2.711119	399240.798216	453.840000
82.000000	8.199679	2.711119	399240.798216	453.930000
83.000000	8.299697	2.710596	399114.838344	454.030000
84.000000	8.399668	2.711014	399215.606242	454.110000
85.000000	8.499667	2.710910	399190.414267	454.180000
86.000000	8.599730	2.711014	399215.606242	454.260000
87.000000	8.699648	2.711328	399291.182165	454.320000
88.000000	8.799667	2.710910	399190.414267	454.400000
89.000000	8.899641	2.710910	399190.414267	454.470000
90.000000	8.999646	2.710387	399064.454394	454.550000
91.000000	9.099620	2.710492	399089.646369	454.640000
92.000000	9.199647	2.710910	399190.414267	454.740000
93.000000	9.299638	2.710805	399165.222293	454.840000
94.000000	9.399610	2.710701	399140.030318	454.930000
95.000000	9.499758	2.710910	399190.414267	455.010000
96.000000	9.599593	2.710910	399190.414267	455.090000
97.000000	9.699718	2.710596	399114.838344	455.150000
98.000000	9.799603	2.710910	399190.414267	455.230000
99.000000	9.899596	2.710596	399114.838344	455.310000
100.000000	9.999669	2.711119	399240.798216	455.380000
101.000000	10.099563	2.710910	399190.414267	455.450000
102.000000	10.199587	2.710492	399089.646369	455.550000
103.000000	10.299459	2.711014	399215.606242	455.640000
104.000000	10.399524	2.710178	399014.070445	455.740000
105.000000	10.499495	2.710701	399140.030318	455.840000
106.000000	10.599425	2.710910	399190.414267	455.930000
107.000000	10.699490	2.710805	399165.222293	456.010000
108.000000	10.799548	2.710805	399165.222293	456.090000
109.000000	10.899681	2.711223	399265.990191	456.150000
110.000000	10.999614	2.710492	399089.646369	456.220000
111.000000	11.099592	2.710910	399190.414267	456.300000
112.000000	11.199528	2.711223	399265.990191	456.380000
113.000000	11.299468	2.710805	399165.222293	456.450000
114.000000	11.399500	2.710805	399165.222293	456.550000
115.000000	11.499484	2.711014	399215.606242	456.640000
116.000000	11.599375	2.711014	399215.606242	456.740000
117.000000	11.699489	2.710596	399114.838344	456.840000
118.000000	11.799388	2.710805	399165.222293	456.930000
119.000000	11.899362	2.711014	399215.606242	457.000000
120.000000	11.999361	2.711223	399265.990191	457.060000
121.000000	12.099386	2.710492	399089.646369	457.130000
122.000000	12.199388	2.710701	399140.030318	457.200000
123.000000	12.299517	2.711119	399240.798216	457.280000
124.000000	12.399565	2.710492	399089.646369	457.370000
125.000000	12.499545	2.710805	399165.222293	457.470000
126.000000	12.599596	2.710805	399165.222293	457.560000
127.000000	12.699557	2.711328	399291.182165	457.640000
128.000000	12.799434	2.710910	399190.414267	457.740000
129.000000	12.899417	2.711014	399215.606242	457.830000
130.000000	12.999400	2.711119	399240.798216	457.910000
131.000000	13.099411	2.710910	399190.414267	457.970000
132.000000	13.199401	2.710805	399165.222293	458.040000
133.000000	13.299464	2.710805	399165.222293	458.120000
134.000000	13.399378	2.710283	399039.262420	458.200000
135.000000	13.499376	2.710596	399114.838344	458.260000
136.000000	13.599441	2.710387	399064.454394	458.370000
137.000000	13.699366	2.710910	399190.414267	458.460000
138.000000	13.799348	2.711223	399265.990191	458.560000
139.000000	13.899437	2.710596	399114.838344	458.640000
140.000000	13.999382	2.710805	399165.222293	458.730000
141.000000	14.099340	2.710910	399190.414267	458.810000
142.000000	14.199336	2.710492	399089.646369	458.890000
143.000000	14.299466	2.710074	398988.878471	458.950000
144.000000	14.399350	2.710910	399190.414267	459.020000
145.000000	14.499322	2.710701	399140.030318	459.090000
146.000000	14.599398	2.710178	399014.070445	459.180000
147.000000	14.699389	2.710074	398988.878471	459.260000
148.000000	14.799347	2.710492	399089.646369	459.360000
149.000000	14.899377	2.710701	399140.030318	459.470000
150.000000	14.999375	2.710805	399165.222293	459.560000
151.000000	15.099331	2.710596	399114.838344	459.630000
152.000000	15.199279	2.711223	399265.990191	459.720000
153.000000	15.299250	2.710910	399190.414267	459.790000
154.000000	15.399189	2.710596	399114.838344	459.870000
155.000000	15.499342	2.711223	399265.990191	459.950000
156.000000	15.599335	2.710910	399190.414267	460.020000
157.000000	15.699282	2.709969	398963.686496	460.080000
158.000000	15.799325	2.711014	399215.606242	460.160000
159.000000	15.899333	2.710492	399089.646369	460.260000
160.000000	15.999286	2.710701	399140.030318	460.360000
161.000000	16.099297	2.710596	399114.838344	460.460000
162.000000	16.199303	2.710805	399165.222293	460.550000
163.000000	16.299224	2.710492	399089.646369	460.640000
164.000000	16.399143	2.710178	399014.070445	460.700000
165.000000	16.499283	2.710283	399039.262420	460.770000
166.000000	16.599241	2.710283	399039.262420	460.840000
167.000000	16.699276	2.710387	399064.454394	460.930000
168.000000	16.799250	2.710701	399140.030318	461.000000
169.000000	16.899240	2.710492	399089.646369	461.080000
170.000000	16.999259	2.710596	399114.838344	461.160000
171.000000	17.099251	2.710805	399165.222293	461.260000
172.000000	17.199228	2.710074	398988.878471	461.360000
173.000000	17.299059	2.710701	399140.030318	461.460000
174.000000	17.399232	2.710283	399039.262420	461.540000
175.000000	17.499248	2.709969	398963.686496	461.630000
176.000000	17.599229	2.710387	399064.454394	461.690000
177.000000	17.699224	2.710387	399064.454394	461.760000
178.000000	17.799193	2.710283	399039.262420	461.830000
179.000000	17.899204	2.710910	399190.414267	461.920000
180.000000	17.999190	2.710492	399089.646369	461.990000
181.000000	18.099163	2.710283	399039.262420	462.060000
182.000000	18.199191	2.710283	399039.262420	462.150000
183.000000	18.299193	2.710492	399089.646369	462.240000
184.000000	18.399160	2.710805	399165.222293	462.340000
185.000000	18.499182	2.710387	399064.454394	462.430000
186.000000	18.599178	2.710596	399114.838344	462.520000
187.000000	18.699133	2.710178	399014.070445	462.600000
188.000000	18.799164	2.710178	399014.070445	462.670000
189.000000	18.899164	2.710596	399114.838344	462.740000
190.000000	18.999114	2.710178	399014.070445	462.810000
191.000000	19.099141	2.710283	399039.262420	462.890000
192.000000	19.199121	2.710074	398988.878471	462.980000
193.000000	19.298957	2.710596	399114.838344	463.070000
194.000000	19.399108	2.710492	399089.646369	463.160000
195.000000	19.499134	2.710387	399064.454394	463.250000
196.000000	19.599080	2.710596	399114.838344	463.350000
197.000000	19.699102	2.709865	398938.494522	463.430000
198.000000	19.799109	2.710178	399014.070445	463.520000
199.000000	19.899068	2.710283	399039.262420	463.590000
200.000000	19.999091	2.710492	399089.646369	463.660000
201.000000	20.099080	2.710283	399039.262420	463.730000
202.000000	20.199038	2.710596	399114.838344	463.800000
203.000000	20.299091	2.710596	399114.838344	463.880000
204.000000	20.399074	2.710283	399039.262420	463.980000
205.000000	20.499035	2.709969	398963.686496	464.070000
206.000000	20.599062	2.709969	398963.686496	464.160000
207.000000	20.699012	2.710178	399014.070445	464.250000
208.000000	20.799014	2.710178	399014.070445	464.340000
209.000000	20.899064	2.709865	398938.494522	464.420000
210.000000	20.999040	2.710074	398988.878471	464.500000
211.000000	21.098869	2.710178	399014.070445	464.560000
212.000000	21.199031	2.710178	399014.070445	464.630000
213.000000	21.298837	2.709969	398963.686496	464.700000
214.000000	21.398983	2.709865	398938.494522	464.780000
215.000000	21.498988	2.710387	399064.454394	464.870000
216.000000	21.598967	2.710074	398988.878471	464.960000
217.000000	21.698956	2.710283	399039.262420	465.060000
218.000000	21.798980	2.710283	399039.262420	465.170000
219.000000	21.898983	2.710387	399064.454394	465.240000
220.000000	21.998927	2.709969	398963.686496	465.330000
221.000000	22.098914	2.709656	398888.110573	465.400000
222.000000	22.198952	2.709446	398837.726624	465.480000
223.000000	22.298893	2.709969	398963.686496	465.550000
224.000000	22.398911	2.709865	398938.494522	465.610000
225.000000	22.498884	2.710074	398988.878471	465.690000
226.000000	22.598910	2.709865	398938.494522	465.770000
227.000000	22.698939	2.709760	398913.302547	465.850000
228.000000	22.798926	2.709551	398862.918598	465.960000
229.000000	22.898854	2.709865	398938.494522	466.060000
230.000000	22.998869	2.709865	398938.494522	466.150000
231.000000	23.098913	2.709656	398888.110573	466.230000
232.000000	23.198888	2.710283	399039.262420	466.300000
233.000000	23.298840	2.709656	398888.110573	466.360000
234.000000	23.398894	2.710178	399014.070445	466.440000
235.000000	23.498875	2.709760	398913.302547	466.510000
236.000000	23.598880	2.709237	398787.342675	466.590000
237.000000	23.698805	2.709446	398837.726624	466.670000
238.000000	23.798857	2.709865	398938.494522	466.750000
239.000000	23.898875	2.710283	399039.262420	466.840000
240.000000	23.998826	2.709551	398862.918598	466.950000
241.000000	24.098801	2.709446	398837.726624	467.040000
242.000000	24.198693	2.709760	398913.302547	467.140000
243.000000	24.298835	2.709760	398913.302547	467.210000
244.000000	24.398794	2.709551	398862.918598	467.280000
245.000000	24.498818	2.709551	398862.918598	467.350000
246.000000	24.598812	2.709446	398837.726624	467.420000
247.000000	24.698767	2.708924	398711.766751	467.500000
248.000000	24.798825	2.709237	398787.342675	467.580000
249.000000	24.898781	2.709760	398913.302547	467.670000
250.000000	24.998796	2.709865	398938.494522	467.750000
251.000000	25.098778	2.709551	398862.918598	467.850000
252.000000	25.198781	2.709865	398938.494522	467.950000
253.000000	25.298767	2.709446	398837.726624	468.040000
254.000000	25.398627	2.709446	398837.726624	468.130000
255.000000	25.498778	2.709446	398837.726624	468.200000
256.000000	25.598662	2.709865	398938.494522	468.280000
257.000000	25.698762	2.709446	398837.726624	468.360000
258.000000	25.798729	2.709656	398888.110573	468.410000
259.000000	25.898722	2.709342	398812.534649	468.500000
260.000000	25.998740	2.709865	398938.494522	468.570000
261.000000	26.098743	2.709551	398862.918598	468.670000
262.000000	26.198705	2.709656	398888.110573	468.750000
263.000000	26.298744	2.709551	398862.918598	468.850000
264.000000	26.398729	2.709551	398862.918598	468.940000
265.000000	26.498696	2.709656	398888.110573	469.030000
266.000000	26.598700	2.709237	398787.342675	469.100000
267.000000	26.698673	2.709028	398736.958725	469.180000
268.000000	26.798693	2.709551	398862.918598	469.240000
269.000000	26.898698	2.709551	398862.918598	469.320000
270.000000	26.998653	2.709551	398862.918598	469.390000
271.000000	27.098678	2.709237	398787.342675	469.470000
272.000000	27.198617	2.709133	398762.150700	469.560000
273.000000	27.298504	2.709551	398862.918598	469.660000
274.000000	27.398608	2.709551	398862.918598	469.750000
275.000000	27.498654	2.708924	398711.766751	469.840000
276.000000	27.598639	2.708924	398711.766751	469.920000
277.000000	27.698590	2.710283	399039.262420	470.010000
278.000000	27.798659	2.709342	398812.534649	470.080000
279.000000	27.898618	2.709133	398762.150700	470.160000
280.000000	27.998571	2.709656	398888.110573	470.210000
281.000000	28.098597	2.709342	398812.534649	470.280000
282.000000	28.198622	2.709551	398862.918598	470.360000
283.000000	28.298468	2.709028	398736.958725	470.450000
284.000000	28.398606	2.709656	398888.110573	470.550000
285.000000	28.498610	2.709342	398812.534649	470.650000
286.000000	28.598584	2.709237	398787.342675	470.750000
287.000000	28.698539	2.709551	398862.918598	470.840000
288.000000	28.798582	2.708819	398686.574776	470.910000
289.000000	28.898527	2.709237	398787.342675	470.990000
290.000000	28.998565	2.709028	398736.958725	471.070000
291.000000	29.098592	2.709237	398787.342675	471.130000
292.000000	29.198530	2.708819	398686.574776	471.210000
293.000000	29.298564	2.709551	398862.918598	471.260000
294.000000	29.398538	2.708715	398661.382802	471.350000
295.000000	29.498475	2.709237	398787.342675	471.450000
296.000000	29.598402	2.709028	398736.958725	471.540000
297.000000	29.698341	2.709028	398736.958725	471.650000
298.000000	29.798346	2.708715	398661.382802	471.740000
299.000000	29.898546	2.708715	398661.382802	471.820000
300.000000	29.998640	2.709237	398787.342675	471.900000
301.000000	30.098446	2.709342	398812.534649	471.960000
302.000000	30.198554	2.709551	398862.918598	472.040000
303.000000	30.298471	2.709133	398762.150700	472.110000
304.000000	30.398400	2.709551	398862.918598	472.180000
305.000000	30.498468	2.709028	398736.958725	472.250000
306.000000	30.598406	2.709342	398812.534649	472.340000
307.000000	30.698291	2.709133	398762.150700	472.430000
308.000000	30.798318	2.709028	398736.958725	472.540000
309.000000	30.898309	2.709028	398736.958725	472.630000
310.000000	30.998234	2.709133	398762.150700	472.730000
311.000000	31.098271	2.709551	398862.918598	472.800000
312.000000	31.198308	2.709133	398762.150700	472.870000
313.000000	31.298264	2.709133	398762.150700	472.930000
314.000000	31.398587	2.709237	398787.342675	473.010000
315.000000	31.498526	2.708819	398686.574776	473.090000
316.000000	31.598499	2.709237	398787.342675	473.170000
317.000000	31.698509	2.709237	398787.342675	473.260000
318.000000	31.798361	2.709028	398736.958725	473.340000
319.000000	31.898350	2.708924	398711.766751	473.430000
320.000000	31.998397	2.708715	398661.382802	473.530000
321.000000	32.098389	2.709133	398762.150700	473.620000
322.000000	32.198385	2.709551	398862.918598	473.700000
323.000000	32.298366	2.709028	398736.958725	473.780000
324.000000	32.398375	2.708924	398711.766751	473.850000
325.000000	32.498348	2.709133	398762.150700	473.910000
326.000000	32.598364	2.709237	398787.342675	473.980000
327.000000	32.698368	2.709760	398913.302547	474.070000
328.000000	32.798326	2.708924	398711.766751	474.150000
329.000000	32.898355	2.709237	398787.342675	474.240000
330.000000	32.998314	2.708819	398686.574776	474.330000
331.000000	33.098312	2.708715	398661.382802	474.430000
332.000000	33.198333	2.709133	398762.150700	474.530000
333.000000	33.298308	2.708924	398711.766751	474.610000
334.000000	33.398328	2.708924	398711.766751	474.690000
335.000000	33.498264	2.709342	398812.534649	474.760000
336.000000	33.598314	2.708819	398686.574776	474.830000
337.000000	33.698286	2.709237	398787.342675	474.910000
338.000000	33.798301	2.709342	398812.534649	474.980000
339.000000	33.898300	2.709237	398787.342675	475.060000
340.000000	33.998264	2.709028	398736.958725	475.150000
341.000000	34.098286	2.709446	398837.726624	475.240000
342.000000	34.198288	2.708715	398661.382802	475.330000
343.000000	34.298205	2.709237	398787.342675	475.430000
344.000000	34.398271	2.709551	398862.918598	475.520000
345.000000	34.498272	2.708924	398711.766751	475.610000
346.000000	34.598231	2.709133	398762.150700	475.680000
347.000000	34.698253	2.709133	398762.150700	475.750000
348.000000	34.798144	2.709028	398736.958725	475.810000
349.000000	34.898205	2.708924	398711.766751	475.880000
350.000000	34.998236	2.709028	398736.958725	475.960000
351.000000	35.098212	2.709342	398812.534649	476.050000
352.000000	35.198179	2.709028	398736.958725	476.150000
353.000000	35.298208	2.709551	398862.918598	476.250000
354.000000	35.398212	2.709133	398762.150700	476.340000
355.000000	35.498178	2.709028	398736.958725	476.430000
356.000000	35.598197	2.709237	398787.342675	476.500000
357.000000	35.698197	2.709028	398736.958725	476.580000
358.000000	35.798156	2.708819	398686.574776	476.650000
359.000000	35.898078	2.709028	398736.958725	476.730000
360.000000	35.998174	2.709133	398762.150700	476.790000
361.000000	36.098138	2.709133	398762.150700	476.860000
362.000000	36.198171	2.708715	398661.382802	476.940000
363.000000	36.298215	2.709028	398736.958725	477.050000
364.000000	36.398123	2.709342	398812.534649	477.140000
365.000000	36.498150	2.709028	398736.958725	477.240000
366.000000	36.598140	2.709237	398787.342675	477.330000
367.000000	36.698079	2.708924	398711.766751	477.400000
368.000000	36.798132	2.709133	398762.150700	477.470000
369.000000	36.898132	2.709133	398762.150700	477.540000
370.000000	36.998102	2.709237	398787.342675	477.620000
371.000000	37.098065	2.709028	398736.958725	477.700000
372.000000	37.198061	2.709237	398787.342675	477.760000
373.000000	37.297919	2.708924	398711.766751	477.830000
374.000000	37.398082	2.708610	398636.190827	477.930000
375.000000	37.498063	2.708401	398585.806878	478.020000
376.000000	37.598032	2.709237	398787.342675	478.130000
377.000000	37.698026	2.709133	398762.150700	478.230000
378.000000	37.798085	2.709133	398762.150700	478.310000
379.000000	37.898055	2.709656	398888.110573	478.390000
380.000000	37.998065	2.709133	398762.150700	478.460000
381.000000	38.098011	2.708924	398711.766751	478.530000
382.000000	38.198020	2.709028	398736.958725	478.600000
383.000000	38.298015	2.708924	398711.766751	478.670000
384.000000	38.398033	2.709028	398736.958725	478.750000
385.000000	38.497999	2.709133	398762.150700	478.830000
386.000000	38.597970	2.708924	398711.766751	478.930000
387.000000	38.697959	2.709237	398787.342675	479.020000
388.000000	38.797999	2.709446	398837.726624	479.130000
389.000000	38.898016	2.709237	398787.342675	479.220000
390.000000	38.998012	2.709028	398736.958725	479.290000
391.000000	39.097942	2.708924	398711.766751	479.370000
392.000000	39.197972	2.709028	398736.958725	479.440000
393.000000	39.297925	2.709342	398812.534649	479.510000
394.000000	39.397924	2.708715	398661.382802	479.580000
395.000000	39.497979	2.709133	398762.150700	479.660000
396.000000	39.597987	2.709028	398736.958725	479.750000
397.000000	39.697928	2.708924	398711.766751	479.830000
398.000000	39.797972	2.708819	398686.574776	479.920000
399.000000	39.897971	2.709342	398812.534649	480.020000
400.000000	39.997934	2.709342	398812.534649	480.120000
401.000000	40.097939	2.709342	398812.534649	480.190000
402.000000	40.197935	2.709237	398787.342675	480.270000
403.000000	40.297906	2.709028	398736.958725	480.340000
404.000000	40.397924	2.708715	398661.382802	480.410000
405.000000	40.497911	2.709342	398812.534649	480.480000
406.000000	40.597957	2.709342	398812.534649	480.550000
407.000000	40.697907	2.708715	398661.382802	480.630000
408.000000	40.797907	2.708401	398585.806878	480.730000
409.000000	40.897882	2.709237	398787.342675	480.810000
410.000000	40.997903	2.709028	398736.958725	480.910000
411.000000	41.097883	2.709028	398736.958725	481.000000
412.000000	41.197860	2.709342	398812.534649	481.090000
413.000000	41.297881	2.709133	398762.150700	481.170000
414.000000	41.397869	2.708819	398686.574776	481.240000
415.000000	41.497839	2.709237	398787.342675	481.310000
416.000000	41.597860	2.708819	398686.574776	481.380000
417.000000	41.697838	2.709133	398762.150700	481.440000
418.000000	41.797807	2.709446	398837.726624	481.530000
419.000000	41.897837	2.708506	398610.998853	481.620000
420.000000	41.997830	2.708715	398661.382802	481.720000
421.000000	42.097812	2.709446	398837.726624	481.810000
422.000000	42.197818	2.708610	398636.190827	481.910000
423.000000	42.297807	2.709342	398812.534649	482.000000
424.000000	42.397776	2.709133	398762.150700	482.070000
425.000000	42.497769	2.708610	398636.190827	482.150000
426.000000	42.597824	2.709133	398762.150700	482.230000
427.000000	42.697766	2.708715	398661.382802	482.300000
428.000000	42.797784	2.708924	398711.766751	482.360000
429.000000	42.897783	2.708610	398636.190827	482.430000
430.000000	42.997741	2.708401	398585.806878	482.510000
431.000000	43.097769	2.708506	398610.998853	482.600000
432.000000	43.197775	2.708819	398686.574776	482.690000
433.000000	43.297714	2.709028	398736.958725	482.790000
434.000000	43.397656	2.708819	398686.574776	482.890000
435.000000	43.497747	2.709342	398812.534649	482.970000
436.000000	43.597712	2.708715	398661.382802	483.060000
437.000000	43.697742	2.708924	398711.766751	483.140000
438.000000	43.797728	2.708610	398636.190827	483.210000
439.000000	43.897700	2.708819	398686.574776	483.280000
440.000000	43.997729	2.709237	398787.342675	483.350000
441.000000	44.097718	2.708819	398686.574776	483.420000
442.000000	44.197685	2.708924	398711.766751	483.500000
443.000000	44.297734	2.708610	398636.190827	483.580000
444.000000	44.397689	2.708610	398636.190827	483.670000
445.000000	44.497674	2.708924	398711.766751	483.770000
446.000000	44.597713	2.708715	398661.382802	483.870000
447.000000	44.697692	2.708401	398585.806878	483.960000
448.000000	44.797689	2.708715	398661.382802	484.040000
449.000000	44.897670	2.708192	398535.422929	484.130000
450.000000	44.997641	2.708715	398661.382802	484.200000
451.000000	45.097641	2.708088	398510.230955	484.270000
452.000000	45.197653	2.709028	398736.958725	484.330000
453.000000	45.297638	2.708715	398661.382802	484.410000
454.000000	45.397620	2.708297	398560.614904	484.490000
455.000000	45.497635	2.708506	398610.998853	484.570000
456.000000	45.597592	2.708401	398585.806878	484.660000
457.000000	45.697573	2.708297	398560.614904	484.760000
458.000000	45.797619	2.708506	398610.998853	484.850000
459.000000	45.897637	2.708506	398610.998853	484.940000
460.000000	45.997581	2.708088	398510.230955	485.030000
461.000000	46.097573	2.708506	398610.998853	485.100000
462.000000	46.197591	2.708924	398711.766751	485.170000
463.000000	46.297513	2.708819	398686.574776	485.240000
464.000000	46.397576	2.708401	398585.806878	485.310000
465.000000	46.497517	2.708506	398610.998853	485.380000
466.000000	46.597553	2.708297	398560.614904	485.460000
467.000000	46.697509	2.707774	398434.655031	485.550000
468.000000	46.797554	2.708192	398535.422929	485.640000
469.000000	46.897512	2.708192	398535.422929	485.730000
470.000000	46.997540	2.708401	398585.806878	485.820000
471.000000	47.097556	2.707879	398459.847006	485.910000
472.000000	47.197492	2.708192	398535.422929	485.990000
473.000000	47.297355	2.708401	398585.806878	486.070000
474.000000	47.397476	2.708401	398585.806878	486.130000
475.000000	47.497383	2.708401	398585.806878	486.200000
476.000000	47.597566	2.708297	398560.614904	486.280000
477.000000	47.697490	2.708088	398510.230955	486.360000
478.000000	47.797476	2.708610	398636.190827	486.440000
479.000000	47.897496	2.707983	398485.038980	486.530000
480.000000	47.997482	2.707774	398434.655031	486.630000
481.000000	48.097308	2.708088	398510.230955	486.720000
482.000000	48.197465	2.708819	398686.574776	486.810000
483.000000	48.297478	2.708506	398610.998853	486.890000
484.000000	48.397426	2.708088	398510.230955	486.970000
485.000000	48.497466	2.708401	398585.806878	487.050000
486.000000	48.597354	2.708192	398535.422929	487.130000
487.000000	48.697304	2.708088	398510.230955	487.190000
488.000000	48.797540	2.707983	398485.038980	487.260000
489.000000	48.897457	2.707670	398409.463056	487.330000
490.000000	48.997443	2.707983	398485.038980	487.420000
491.000000	49.097477	2.708088	398510.230955	487.510000
492.000000	49.197404	2.707879	398459.847006	487.620000
493.000000	49.297496	2.707879	398459.847006	487.710000
494.000000	49.397463	2.708506	398610.998853	487.800000
495.000000	49.497393	2.707356	398333.887133	487.880000
496.000000	49.597253	2.707774	398434.655031	487.960000
497.000000	49.697354	2.707983	398485.038980	488.040000
498.000000	49.797291	2.708297	398560.614904	488.110000
499.000000	49.897203	2.707774	398434.655031	488.170000
500.000000	49.997201	2.707879	398459.847006	488.240000
501.000000	50.097227	2.707983	398485.038980	488.320000
502.000000	50.197236	2.707774	398434.655031	488.400000
503.000000	50.297359	2.708401	398585.806878	488.490000
504.000000	50.397411	2.707983	398485.038980	488.590000
505.000000	50.497408	2.707670	398409.463056	488.690000
506.000000	50.597480	2.707774	398434.655031	488.780000
507.000000	50.697406	2.707147	398283.503184	488.860000
508.000000	50.797293	2.707983	398485.038980	488.930000
509.000000	50.897320	2.707774	398434.655031	489.010000
510.000000	50.997271	2.707565	398384.271082	489.080000
511.000000	51.097271	2.707670	398409.463056	489.150000
512.000000	51.197302	2.708401	398585.806878	489.220000
513.000000	51.297284	2.707670	398409.463056	489.300000
514.000000	51.397144	2.708088	398510.230955	489.390000
515.000000	51.497280	2.707461	398359.079107	489.480000
516.000000	51.597280	2.707565	398384.271082	489.570000
517.000000	51.697260	2.708088	398510.230955	489.670000
518.000000	51.797258	2.707774	398434.655031	489.750000
519.000000	51.897269	2.708088	398510.230955	489.820000
520.000000	51.997224	2.707670	398409.463056	489.900000
521.000000	52.097241	2.707565	398384.271082	489.970000
522.000000	52.197244	2.707565	398384.271082	490.050000
523.000000	52.297174	2.707147	398283.503184	490.120000
524.000000	52.397128	2.707252	398308.695158	490.190000
525.000000	52.497161	2.707356	398333.887133	490.270000
526.000000	52.597202	2.707879	398459.847006	490.360000
527.000000	52.697229	2.707461	398359.079107	490.460000
528.000000	52.797210	2.707565	398384.271082	490.570000
529.000000	52.897085	2.707565	398384.271082	490.680000
530.000000	52.997200	2.707774	398434.655031	490.760000
531.000000	53.097209	2.707356	398333.887133	490.840000
532.000000	53.197159	2.708088	398510.230955	490.910000
533.000000	53.297095	2.707774	398434.655031	490.990000
534.000000	53.397172	2.707356	398333.887133	491.050000
535.000000	53.497144	2.707461	398359.079107	491.120000
536.000000	53.597163	2.707774	398434.655031	491.190000
537.000000	53.697156	2.707461	398359.079107	491.270000
538.000000	53.797120	2.707356	398333.887133	491.360000
539.000000	53.897139	2.707356	398333.887133	491.450000
540.000000	53.997150	2.707670	398409.463056	491.550000
541.000000	54.097128	2.707565	398384.271082	491.640000
542.000000	54.197123	2.707461	398359.079107	491.720000
543.000000	54.297118	2.707670	398409.463056	491.780000
544.000000	54.397083	2.707356	398333.887133	491.860000
545.000000	54.497107	2.707670	398409.463056	491.930000
546.000000	54.597111	2.707252	398308.695158	492.010000
547.000000	54.697067	2.707461	398359.079107	492.080000
548.000000	54.797088	2.707670	398409.463056	492.150000
549.000000	54.897090	2.707252	398308.695158	492.230000
550.000000	54.997059	2.707147	398283.503184	492.320000
551.000000	55.097062	2.707565	398384.271082	492.420000
552.000000	55.197083	2.707670	398409.463056	492.530000
553.000000	55.297012	2.707043	398258.311209	492.610000
554.000000	55.397063	2.707670	398409.463056	492.690000
555.000000	55.497036	2.707356	398333.887133	492.770000
556.000000	55.596985	2.707356	398333.887133	492.830000
557.000000	55.697004	2.707565	398384.271082	492.910000
558.000000	55.796894	2.707252	398308.695158	492.990000
559.000000	55.896980	2.707565	398384.271082	493.060000
560.000000	55.997121	2.707565	398384.271082	493.130000
561.000000	56.097023	2.706938	398233.119235	493.210000
562.000000	56.197050	2.706729	398182.735286	493.310000
563.000000	56.297040	2.707252	398308.695158	493.410000
564.000000	56.396852	2.707147	398283.503184	493.510000
565.000000	56.496943	2.707252	398308.695158	493.600000
566.000000	56.597004	2.707043	398258.311209	493.670000
567.000000	56.696815	2.707252	398308.695158	493.740000
568.000000	56.796943	2.706834	398207.927260	493.810000
569.000000	56.896953	2.706834	398207.927260	493.890000
570.000000	56.996968	2.706938	398233.119235	493.960000
571.000000	57.096909	2.706625	398157.543311	494.040000
572.000000	57.196967	2.707356	398333.887133	494.100000
573.000000	57.296786	2.707565	398384.271082	494.180000
574.000000	57.396921	2.707670	398409.463056	494.280000
575.000000	57.496941	2.707147	398283.503184	494.380000
576.000000	57.596920	2.706834	398207.927260	494.490000
577.000000	57.696908	2.707252	398308.695158	494.580000
578.000000	57.796914	2.707356	398333.887133	494.650000
579.000000	57.896772	2.707043	398258.311209	494.720000
580.000000	57.996881	2.706834	398207.927260	494.780000
581.000000	58.096911	2.707043	398258.311209	494.850000
582.000000	58.196901	2.707565	398384.271082	494.930000
583.000000	58.296835	2.707356	398333.887133	494.990000
584.000000	58.396878	2.707565	398384.271082	495.070000
585.000000	58.496883	2.706938	398233.119235	495.160000
586.000000	58.596854	2.707356	398333.887133	495.260000
587.000000	58.696894	2.707356	398333.887133	495.360000
588.000000	58.796824	2.707670	398409.463056	495.460000
589.000000	58.896818	2.707670	398409.463056	495.550000
590.000000	58.996859	2.707461	398359.079107	495.630000
591.000000	59.096856	2.707147	398283.503184	495.700000
592.000000	59.196826	2.707043	398258.311209	495.760000
593.000000	59.296850	2.707252	398308.695158	495.840000
594.000000	59.396843	2.707356	398333.887133	495.910000
595.000000	59.496810	2.707147	398283.503184	495.990000
596.000000	59.596771	2.707461	398359.079107	496.070000
597.000000	59.696822	2.706834	398207.927260	496.150000
598.000000	59.796782	2.707043	398258.311209	496.250000
599.000000	59.896818	2.706834	398207.927260	496.350000
600.000000	59.996801	2.706938	398233.119235	496.440000
601.000000	60.096769	2.707043	398258.311209	496.530000
602.000000	60.196806	2.707565	398384.271082	496.590000
603.000000	60.296791	2.707461	398359.079107	496.660000
604.000000	60.396753	2.706938	398233.119235	496.740000
605.000000	60.496773	2.707147	398283.503184	496.820000
606.000000	60.596758	2.706938	398233.119235	496.900000
607.000000	60.696735	2.707252	398308.695158	496.980000
608.000000	60.796699	2.707252	398308.695158	497.060000
609.000000	60.896655	2.707043	398258.311209	497.150000
610.000000	60.996727	2.706938	398233.119235	497.240000
611.000000	61.096751	2.707043	398258.311209	497.340000
612.000000	61.196735	2.706834	398207.927260	497.440000
613.000000	61.296731	2.707252	398308.695158	497.520000
614.000000	61.396545	2.707670	398409.463056	497.580000
615.000000	61.496691	2.707043	398258.311209	497.650000
616.000000	61.596680	2.707461	398359.079107	497.730000
617.000000	61.696717	2.706834	398207.927260	497.810000
618.000000	61.796525	2.707774	398434.655031	497.880000
619.000000	61.896651	2.707252	398308.695158	497.960000
620.000000	61.996689	2.706834	398207.927260	498.050000
621.000000	62.096690	2.707147	398283.503184	498.140000
622.000000	62.196632	2.707147	398283.503184	498.240000
623.000000	62.296662	2.707147	398283.503184	498.340000
624.000000	62.396651	2.707356	398333.887133	498.440000
625.000000	62.496624	2.706834	398207.927260	498.530000
626.000000	62.596665	2.707252	398308.695158	498.600000
627.000000	62.696662	2.706729	398182.735286	498.660000
628.000000	62.797468	2.707565	398384.271082	498.730000
629.000000	62.896593	2.707043	398258.311209	498.800000
630.000000	62.996575	2.707356	398333.887133	498.880000
631.000000	63.096548	2.707147	398283.503184	498.960000
632.000000	63.196533	2.707356	398333.887133	499.040000
633.000000	63.296536	2.706625	398157.543311	499.130000
634.000000	63.396565	2.706834	398207.927260	499.220000
635.000000	63.496513	2.706938	398233.119235	499.310000
636.000000	63.596515	2.706834	398207.927260	499.400000
637.000000	63.696533	2.707147	398283.503184	499.490000
638.000000	63.796666	2.707043	398258.311209	499.560000
639.000000	63.896532	2.706625	398157.543311	499.630000
640.000000	63.996511	2.707461	398359.079107	499.700000
641.000000	64.096484	2.707043	398258.311209	499.770000
642.000000	64.196492	2.707043	398258.311209	499.840000
643.000000	64.296552	2.706938	398233.119235	499.930000
644.000000	64.396479	2.707565	398384.271082	500.020000
645.000000	64.496336	2.707565	398384.271082	500.110000
646.000000	64.596507	2.707043	398258.311209	500.200000
647.000000	64.696459	2.707147	398283.503184	500.300000
648.000000	64.796466	2.707043	398258.311209	500.390000
649.000000	64.896461	2.707147	398283.503184	500.460000
650.000000	64.996448	2.706834	398207.927260	500.520000
651.000000	65.096467	2.706938	398233.119235	500.600000
652.000000	65.196291	2.706729	398182.735286	500.670000
653.000000	65.296472	2.707565	398384.271082	500.740000
654.000000	65.396419	2.707356	398333.887133	500.820000
655.000000	65.496316	2.707147	398283.503184	500.910000
656.000000	65.596438	2.707147	398283.503184	501.000000
657.000000	65.696280	2.707461	398359.079107	501.080000
658.000000	65.796405	2.706834	398207.927260	501.170000
659.000000	65.896475	2.707147	398283.503184	501.270000
660.000000	65.996400	2.706834	398207.927260	501.360000
661.000000	66.096368	2.706938	398233.119235	501.440000
662.000000	66.196367	2.706729	398182.735286	501.510000
663.000000	66.296383	2.707043	398258.311209	501.580000
664.000000	66.396370	2.706834	398207.927260	501.640000
665.000000	66.496373	2.706938	398233.119235	501.710000
666.000000	66.596364	2.707252	398308.695158	501.790000
667.000000	66.696361	2.706938	398233.119235	501.870000
668.000000	66.796336	2.707147	398283.503184	501.960000
669.000000	66.896413	2.706938	398233.119235	502.050000
670.000000	66.996338	2.706729	398182.735286	502.140000
671.000000	67.096403	2.706729	398182.735286	502.240000
672.000000	67.196304	2.706729	398182.735286	502.330000
673.000000	67.296362	2.706938	398233.119235	502.410000
674.000000	67.396267	2.706834	398207.927260	502.480000
675.000000	67.496214	2.706625	398157.543311	502.560000
676.000000	67.596218	2.706625	398157.543311	502.630000
677.000000	67.696224	2.707043	398258.311209	502.690000
678.000000	67.796333	2.707252	398308.695158	502.770000
679.000000	67.896354	2.706625	398157.543311	502.850000
680.000000	67.996467	2.706625	398157.543311	502.940000
681.000000	68.096365	2.706834	398207.927260	503.020000
682.000000	68.196293	2.707043	398258.311209	503.120000
683.000000	68.296269	2.706416	398107.159362	503.220000
684.000000	68.396315	2.706625	398157.543311	503.310000
685.000000	68.496285	2.706520	398132.351337	503.390000
686.000000	68.596251	2.706625	398157.543311	503.460000
687.000000	68.696099	2.706416	398107.159362	503.530000
688.000000	68.796127	2.706311	398081.967388	503.600000
689.000000	68.896131	2.706520	398132.351337	503.680000
690.000000	68.996108	2.706520	398132.351337	503.750000
691.000000	69.096150	2.706729	398182.735286	503.830000
692.000000	69.196126	2.706729	398182.735286	503.920000
693.000000	69.296315	2.706938	398233.119235	504.010000
694.000000	69.396306	2.706625	398157.543311	504.100000
695.000000	69.496390	2.706625	398157.543311	504.200000
696.000000	69.596331	2.706625	398157.543311	504.280000
697.000000	69.696312	2.706416	398107.159362	504.370000
698.000000	69.796204	2.707147	398283.503184	504.440000
699.000000	69.896222	2.706416	398107.159362	504.500000
700.000000	69.996222	2.706625	398157.543311	504.570000
701.000000	70.096217	2.706625	398157.543311	504.650000
702.000000	70.196239	2.707043	398258.311209	504.720000
703.000000	70.296131	2.706206	398056.775413	504.810000
704.000000	70.396059	2.706520	398132.351337	504.890000
705.000000	70.496218	2.706834	398207.927260	504.990000
706.000000	70.596160	2.706520	398132.351337	505.080000
707.000000	70.696195	2.706729	398182.735286	505.170000
708.000000	70.796171	2.706102	398031.583438	505.260000
709.000000	70.896189	2.706834	398207.927260	505.350000
710.000000	70.996173	2.706729	398182.735286	505.430000
711.000000	71.096166	2.706416	398107.159362	505.500000
712.000000	71.196148	2.706625	398157.543311	505.560000
713.000000	71.296158	2.706625	398157.543311	505.630000
714.000000	71.396144	2.706311	398081.967388	505.700000
715.000000	71.496160	2.706416	398107.159362	505.780000
716.000000	71.596150	2.706311	398081.967388	505.860000
717.000000	71.696147	2.706729	398182.735286	505.970000
718.000000	71.796118	2.706206	398056.775413	506.060000
719.000000	71.896131	2.705997	398006.391464	506.150000
720.000000	71.996112	2.706416	398107.159362	506.230000
721.000000	72.096101	2.706416	398107.159362	506.310000
722.000000	72.196082	2.706520	398132.351337	506.380000
723.000000	72.296089	2.706102	398031.583438	506.450000
724.000000	72.396099	2.706311	398081.967388	506.520000
725.000000	72.496085	2.706416	398107.159362	506.590000
726.000000	72.596080	2.706102	398031.583438	506.660000
727.000000	72.696073	2.706625	398157.543311	506.730000
728.000000	72.796073	2.706206	398056.775413	506.830000
729.000000	72.896063	2.705684	397930.815540	506.930000
730.000000	72.996054	2.706206	398056.775413	507.020000
731.000000	73.096044	2.706625	398157.543311	507.120000
732.000000	73.196013	2.706416	398107.159362	507.210000
733.000000	73.295970	2.705997	398006.391464	507.300000
734.000000	73.396048	2.706102	398031.583438	507.370000
735.000000	73.496026	2.706520	398132.351337	507.450000
736.000000	73.596005	2.705997	398006.391464	507.510000
737.000000	73.696032	2.706206	398056.775413	507.580000
738.000000	73.796007	2.706311	398081.967388	507.650000
739.000000	73.895994	2.706102	398031.583438	507.720000
740.000000	73.995997	2.706311	398081.967388	507.820000
741.000000	74.095994	2.706102	398031.583438	507.910000
742.000000	74.195944	2.706102	398031.583438	508.000000
743.000000	74.295981	2.705893	397981.199489	508.090000
744.000000	74.395936	2.706206	398056.775413	508.190000
745.000000	74.495946	2.706102	398031.583438	508.270000
746.000000	74.595950	2.706102	398031.583438	508.340000
747.000000	74.695947	2.706102	398031.583438	508.420000
748.000000	74.795907	2.705370	397855.239617	508.490000
749.000000	74.895940	2.705788	397956.007515	508.560000
750.000000	74.995919	2.705893	397981.199489	508.620000
751.000000	75.095838	2.705997	398006.391464	508.700000
752.000000	75.195726	2.705684	397930.815540	508.800000
753.000000	75.295932	2.706102	398031.583438	508.890000
754.000000	75.395921	2.705579	397905.623566	508.980000
755.000000	75.495919	2.705788	397956.007515	509.060000
756.000000	75.595907	2.705893	397981.199489	509.160000
757.000000	75.695859	2.706206	398056.775413	509.240000
758.000000	75.795899	2.705579	397905.623566	509.310000
759.000000	75.895902	2.706102	398031.583438	509.380000
760.000000	75.995888	2.706206	398056.775413	509.460000
761.000000	76.095880	2.705893	397981.199489	509.530000
762.000000	76.195885	2.705579	397905.623566	509.590000
763.000000	76.295839	2.705997	398006.391464	509.660000
764.000000	76.395848	2.706416	398107.159362	509.750000
765.000000	76.495860	2.705788	397956.007515	509.860000
766.000000	76.595854	2.706206	398056.775413	509.950000
767.000000	76.695855	2.705684	397930.815540	510.030000
768.000000	76.795849	2.705579	397905.623566	510.130000
769.000000	76.895813	2.706625	398157.543311	510.210000
770.000000	76.995825	2.705788	397956.007515	510.280000
771.000000	77.095850	2.705579	397905.623566	510.350000
772.000000	77.195820	2.705997	398006.391464	510.430000
773.000000	77.295826	2.705893	397981.199489	510.500000
774.000000	77.395809	2.705997	398006.391464	510.570000
775.000000	77.495790	2.705997	398006.391464	510.640000
776.000000	77.595759	2.705788	397956.007515	510.730000
777.000000	77.695789	2.705684	397930.815540	510.840000
778.000000	77.795775	2.705475	397880.431591	510.930000
779.000000	77.895785	2.705684	397930.815540	511.020000
780.000000	77.995770	2.705997	398006.391464	511.110000
781.000000	78.095750	2.705475	397880.431591	511.180000
782.000000	78.195762	2.705475	397880.431591	511.250000
783.000000	78.295757	2.705475	397880.431591	511.320000
784.000000	78.395746	2.705684	397930.815540	511.390000
785.000000	78.495755	2.706102	398031.583438	511.470000
786.000000	78.595679	2.705788	397956.007515	511.530000
787.000000	78.695717	2.705684	397930.815540	511.610000
788.000000	78.795721	2.705684	397930.815540	511.700000
789.000000	78.895730	2.705684	397930.815540	511.810000
790.000000	78.995708	2.706102	398031.583438	511.900000
791.000000	79.095663	2.705475	397880.431591	512.000000
792.000000	79.195706	2.705475	397880.431591	512.080000
793.000000	79.295628	2.705997	398006.391464	512.170000
794.000000	79.395539	2.705057	397779.663693	512.230000
795.000000	79.495687	2.705788	397956.007515	512.300000
796.000000	79.595665	2.705579	397905.623566	512.380000
797.000000	79.695670	2.705684	397930.815540	512.460000
798.000000	79.795637	2.705579	397905.623566	512.510000
799.000000	79.895656	2.705370	397855.239617	512.580000
800.000000	79.995654	2.705161	397804.855668	512.670000
801.000000	80.095645	2.705475	397880.431591	512.770000
802.000000	80.195636	2.705161	397804.855668	512.860000
803.000000	80.295658	2.705579	397905.623566	512.960000
804.000000	80.395636	2.705475	397880.431591	513.060000
805.000000	80.495629	2.705579	397905.623566	513.140000
806.000000	80.595637	2.705579	397905.623566	513.200000
807.000000	80.695626	2.704952	397754.471719	513.280000
808.000000	80.795604	2.705161	397804.855668	513.350000
809.000000	80.895513	2.706206	398056.775413	513.420000
810.000000	80.995559	2.705266	397830.047642	513.480000
811.000000	81.095585	2.705893	397981.199489	513.550000
812.000000	81.195589	2.705161	397804.855668	513.630000
813.000000	81.295588	2.705684	397930.815540	513.720000
814.000000	81.395586	2.705579	397905.623566	513.830000
815.000000	81.495567	2.705266	397830.047642	513.920000
816.000000	81.595568	2.705579	397905.623566	514.030000
817.000000	81.695554	2.705788	397956.007515	514.120000
818.000000	81.795556	2.705161	397804.855668	514.200000
819.000000	81.895477	2.705684	397930.815540	514.270000
820.000000	81.995536	2.705893	397981.199489	514.340000
821.000000	82.095553	2.705684	397930.815540	514.410000
822.000000	82.195524	2.705893	397981.199489	514.490000
823.000000	82.295483	2.705475	397880.431591	514.550000
824.000000	82.395511	2.705370	397855.239617	514.620000
825.000000	82.495513	2.705997	398006.391464	514.720000
826.000000	82.595534	2.705579	397905.623566	514.810000
827.000000	82.695516	2.706206	398056.775413	514.890000
828.000000	82.795513	2.705997	398006.391464	515.000000
829.000000	82.895492	2.705788	397956.007515	515.080000
830.000000	82.995490	2.705788	397956.007515	515.150000
831.000000	83.095501	2.706206	398056.775413	515.220000
832.000000	83.195431	2.705788	397956.007515	515.300000
833.000000	83.295428	2.705579	397905.623566	515.370000
834.000000	83.395469	2.705684	397930.815540	515.450000
835.000000	83.495449	2.705579	397905.623566	515.510000
836.000000	83.595462	2.705370	397855.239617	515.580000
837.000000	83.695418	2.705370	397855.239617	515.670000
838.000000	83.795441	2.705370	397855.239617	515.770000
839.000000	83.895390	2.705997	398006.391464	515.860000
840.000000	83.995380	2.705788	397956.007515	515.960000
841.000000	84.095406	2.705788	397956.007515	516.040000
842.000000	84.195384	2.705266	397830.047642	516.110000
843.000000	84.295411	2.705266	397830.047642	516.180000
844.000000	84.395418	2.705684	397930.815540	516.250000
845.000000	84.495412	2.705475	397880.431591	516.320000
846.000000	84.595380	2.705370	397855.239617	516.410000
847.000000	84.695344	2.705161	397804.855668	516.470000
848.000000	84.795397	2.705475	397880.431591	516.550000
849.000000	84.895395	2.705788	397956.007515	516.650000
850.000000	84.995334	2.705266	397830.047642	516.740000
851.000000	85.095380	2.705788	397956.007515	516.830000
852.000000	85.195355	2.705579	397905.623566	516.930000
853.000000	85.295332	2.705997	398006.391464	517.010000
854.000000	85.395361	2.705475	397880.431591	517.080000
855.000000	85.495343	2.704848	397729.279744	517.150000
856.000000	85.595331	2.705161	397804.855668	517.220000
857.000000	85.695339	2.704952	397754.471719	517.300000
858.000000	85.795324	2.705266	397830.047642	517.370000
859.000000	85.895312	2.705475	397880.431591	517.440000
860.000000	85.995293	2.705370	397855.239617	517.520000
861.000000	86.095318	2.705475	397880.431591	517.620000
862.000000	86.195287	2.705266	397830.047642	517.710000
863.000000	86.295276	2.705266	397830.047642	517.800000
864.000000	86.395246	2.705475	397880.431591	517.900000
865.000000	86.495191	2.705893	397981.199489	517.990000
866.000000	86.595257	2.705370	397855.239617	518.050000
867.000000	86.695235	2.705370	397855.239617	518.110000
868.000000	86.795389	2.705684	397930.815540	518.180000
869.000000	86.895329	2.705684	397930.815540	518.250000
870.000000	86.995310	2.705266	397830.047642	518.340000
871.000000	87.095338	2.705370	397855.239617	518.410000
872.000000	87.195241	2.705266	397830.047642	518.490000
873.000000	87.295213	2.705161	397804.855668	518.590000
874.000000	87.395197	2.705788	397956.007515	518.680000
875.000000	87.495227	2.705266	397830.047642	518.770000
876.000000	87.595201	2.705370	397855.239617	518.870000
877.000000	87.695184	2.704952	397754.471719	518.960000
878.000000	87.795024	2.705684	397930.815540	519.030000
879.000000	87.895033	2.705161	397804.855668	519.090000
880.000000	87.994916	2.704952	397754.471719	519.150000
881.000000	88.094993	2.705266	397830.047642	519.230000
882.000000	88.195059	2.705579	397905.623566	519.300000
883.000000	88.294978	2.705057	397779.663693	519.390000
884.000000	88.395256	2.705161	397804.855668	519.470000
885.000000	88.495253	2.705057	397779.663693	519.560000
886.000000	88.595275	2.705057	397779.663693	519.650000
887.000000	88.695185	2.705057	397779.663693	519.750000
888.000000	88.794925	2.704639	397678.895795	519.840000
889.000000	88.895136	2.705475	397880.431591	519.920000
890.000000	88.995148	2.705370	397855.239617	520.000000
891.000000	89.095119	2.705161	397804.855668	520.060000
892.000000	89.195119	2.704952	397754.471719	520.130000
893.000000	89.294994	2.704743	397704.087769	520.190000
894.000000	89.395127	2.704639	397678.895795	520.270000
895.000000	89.495109	2.705266	397830.047642	520.360000
896.000000	89.595113	2.705266	397830.047642	520.440000
897.000000	89.695102	2.704952	397754.471719	520.540000
898.000000	89.795100	2.704848	397729.279744	520.620000
899.000000	89.895099	2.705579	397905.623566	520.720000
900.000000	89.994846	2.705161	397804.855668	520.810000
901.000000	90.094846	2.704325	397603.319871	520.890000
902.000000	90.195065	2.704430	397628.511846	520.970000
903.000000	90.294867	2.705266	397830.047642	521.040000
904.000000	90.394972	2.705684	397930.815540	521.110000
905.000000	90.495068	2.705057	397779.663693	521.180000
906.000000	90.595023	2.705057	397779.663693	521.250000
907.000000	90.695041	2.704534	397653.703820	521.330000
908.000000	90.795038	2.704639	397678.895795	521.420000
909.000000	90.895033	2.704534	397653.703820	521.510000
910.000000	90.995040	2.704430	397628.511846	521.600000
911.000000	91.094901	2.704534	397653.703820	521.700000
912.000000	91.194761	2.704116	397552.935922	521.780000
913.000000	91.294741	2.705161	397804.855668	521.870000
914.000000	91.394810	2.704430	397628.511846	521.940000
915.000000	91.494935	2.704952	397754.471719	522.010000
916.000000	91.594729	2.704952	397754.471719	522.080000
917.000000	91.694994	2.704325	397603.319871	522.140000
918.000000	91.794990	2.704743	397704.087769	522.220000
919.000000	91.894969	2.705370	397855.239617	522.300000
920.000000	91.994840	2.704952	397754.471719	522.390000
921.000000	92.094918	2.704430	397628.511846	522.490000
922.000000	92.194954	2.704743	397704.087769	522.590000
923.000000	92.294770	2.704952	397754.471719	522.680000
924.000000	92.394950	2.704639	397678.895795	522.760000
925.000000	92.494938	2.704325	397603.319871	522.840000
926.000000	92.594921	2.704639	397678.895795	522.910000
927.000000	92.694761	2.704221	397578.127897	522.990000
928.000000	92.794884	2.704221	397578.127897	523.050000
929.000000	92.894893	2.704534	397653.703820	523.110000
930.000000	92.994917	2.704743	397704.087769	523.200000
931.000000	93.094843	2.704116	397552.935922	523.280000
932.000000	93.194890	2.704639	397678.895795	523.370000
933.000000	93.294721	2.704325	397603.319871	523.460000
934.000000	93.394893	2.704325	397603.319871	523.560000
935.000000	93.494841	2.704221	397578.127897	523.640000
936.000000	93.594832	2.704221	397578.127897	523.720000
937.000000	93.694862	2.704325	397603.319871	523.780000
938.000000	93.794843	2.704534	397653.703820	523.860000
939.000000	93.894860	2.704430	397628.511846	523.940000
940.000000	93.994860	2.704116	397552.935922	524.010000
941.000000	94.094835	2.704430	397628.511846	524.070000
942.000000	94.194844	2.704221	397578.127897	524.150000
943.000000	94.294855	2.704012	397527.743948	524.230000
944.000000	94.394808	2.704325	397603.319871	524.330000
945.000000	94.494831	2.704639	397678.895795	524.420000
946.000000	94.594761	2.704848	397729.279744	524.520000
947.000000	94.694802	2.704639	397678.895795	524.610000
948.000000	94.794603	2.704325	397603.319871	524.700000
949.000000	94.894807	2.704430	397628.511846	524.770000
950.000000	94.994587	2.704221	397578.127897	524.830000
951.000000	95.094742	2.704534	397653.703820	524.920000
952.000000	95.194782	2.704116	397552.935922	524.980000
953.000000	95.294587	2.704116	397552.935922	525.050000
954.000000	95.394773	2.704534	397653.703820	525.120000
955.000000	95.494773	2.704534	397653.703820	525.200000
956.000000	95.594773	2.704430	397628.511846	525.290000
957.000000	95.694724	2.704116	397552.935922	525.390000
958.000000	95.794668	2.704534	397653.703820	525.500000
959.000000	95.894702	2.704430	397628.511846	525.580000
960.000000	95.994746	2.704639	397678.895795	525.660000
961.000000	96.094722	2.704221	397578.127897	525.730000
962.000000	96.194708	2.704221	397578.127897	525.810000
963.000000	96.294517	2.704534	397653.703820	525.880000
964.000000	96.394729	2.703803	397477.359999	525.950000
965.000000	96.494463	2.704743	397704.087769	526.020000
966.000000	96.594645	2.704221	397578.127897	526.090000
967.000000	96.694471	2.704639	397678.895795	526.170000
968.000000	96.794636	2.704221	397578.127897	526.260000
969.000000	96.894703	2.704116	397552.935922	526.360000
970.000000	96.994393	2.704743	397704.087769	526.460000
971.000000	97.094607	2.704639	397678.895795	526.550000
972.000000	97.194684	2.703907	397502.551973	526.620000
973.000000	97.294668	2.704325	397603.319871	526.690000
974.000000	97.394652	2.704430	397628.511846	526.760000
975.000000	97.494406	2.704430	397628.511846	526.830000
976.000000	97.594414	2.705057	397779.663693	526.900000
977.000000	97.694593	2.704743	397704.087769	526.980000
978.000000	97.794414	2.704534	397653.703820	527.050000
979.000000	97.894632	2.704116	397552.935922	527.140000
980.000000	97.994464	2.704116	397552.935922	527.230000
981.000000	98.094637	2.703803	397477.359999	527.320000
982.000000	98.194601	2.704430	397628.511846	527.430000
983.000000	98.294605	2.704534	397653.703820	527.520000
984.000000	98.394618	2.704534	397653.703820	527.590000
985.000000	98.494596	2.704221	397578.127897	527.650000
986.000000	98.594626	2.704116	397552.935922	527.720000
987.000000	98.694609	2.704012	397527.743948	527.790000
988.000000	98.794565	2.704221	397578.127897	527.870000
989.000000	98.894595	2.703594	397426.976050	527.940000
990.000000	98.994587	2.704325	397603.319871	528.010000
991.000000	99.094570	2.704012	397527.743948	528.100000
992.000000	99.194345	2.704952	397754.471719	528.200000
993.000000	99.294299	2.704012	397527.743948	528.290000
994.000000	99.394531	2.704639	397678.895795	528.390000
995.000000	99.494555	2.704639	397678.895795	528.490000
996.000000	99.594535	2.703698	397452.168024	528.560000
997.000000	99.694495	2.704221	397578.127897	528.620000
998.000000	99.794524	2.704012	397527.743948	528.690000
999.000000	99.894334	2.704012	397527.743948	528.760000
1000.000000	99.994487	2.704325	397603.319871	528.840000
1001.000000	100.094513	2.704012	397527.743948	528.920000
1002.000000	100.194482	2.704116	397552.935922	528.990000
1003.000000	100.294485	2.704430	397628.511846	529.070000
1004.000000	100.394498	2.704221	397578.127897	529.170000
1005.000000	100.494443	2.704639	397678.895795	529.270000
1006.000000	100.594462	2.704012	397527.743948	529.360000
1007.000000	100.694477	2.704116	397552.935922	529.440000
1008.000000	100.794500	2.704116	397552.935922	529.520000
1009.000000	100.894261	2.703907	397502.551973	529.590000
1010.000000	100.994452	2.704221	397578.127897	529.660000
1011.000000	101.094452	2.704325	397603.319871	529.720000
1012.000000	101.194433	2.704221	397578.127897	529.800000
1013.000000	101.294406	2.703698	397452.168024	529.880000
1014.000000	101.394426	2.704116	397552.935922	529.960000
1015.000000	101.494445	2.704639	397678.895795	530.030000
1016.000000	101.594421	2.704116	397552.935922	530.130000
1017.000000	101.694405	2.703803	397477.359999	530.230000
1018.000000	101.794429	2.704116	397552.935922	530.320000
1019.000000	101.894212	2.704534	397653.703820	530.400000
1020.000000	101.994396	2.704221	397578.127897	530.480000
1021.000000	102.094298	2.703489	397401.784075	530.550000
1022.000000	102.194401	2.704116	397552.935922	530.620000
1023.000000	102.294368	2.704116	397552.935922	530.690000
1024.000000	102.394375	2.704221	397578.127897	530.760000
1025.000000	102.494365	2.704221	397578.127897	530.840000
1026.000000	102.594398	2.703907	397502.551973	530.920000
1027.000000	102.694360	2.704325	397603.319871	531.010000
1028.000000	102.794370	2.704534	397653.703820	531.090000
1029.000000	102.894252	2.704221	397578.127897	531.190000
1030.000000	102.994347	2.704012	397527.743948	531.290000
1031.000000	103.094346	2.703803	397477.359999	531.370000
1032.000000	103.194340	2.704534	397653.703820	531.450000
1033.000000	103.294296	2.703698	397452.168024	531.520000
1034.000000	103.394285	2.704221	397578.127897	531.580000
1035.000000	103.494323	2.704325	397603.319871	531.640000
1036.000000	103.594309	2.704325	397603.319871	531.720000
1037.000000	103.694309	2.704116	397552.935922	531.800000
1038.000000	103.794297	2.703698	397452.168024	531.880000
1039.000000	103.894149	2.704221	397578.127897	531.970000
1040.000000	103.994264	2.704221	397578.127897	532.060000
1041.000000	104.094277	2.704012	397527.743948	532.160000
1042.000000	104.194273	2.704325	397603.319871	532.240000
1043.000000	104.294281	2.704639	397678.895795	532.340000
1044.000000	104.394262	2.704012	397527.743948	532.420000
1045.000000	104.494277	2.704012	397527.743948	532.490000
1046.000000	104.594310	2.704325	397603.319871	532.560000
1047.000000	104.694195	2.704325	397603.319871	532.620000
1048.000000	104.794273	2.703803	397477.359999	532.690000
1049.000000	104.894191	2.703489	397401.784075	532.770000
1050.000000	104.994226	2.704534	397653.703820	532.860000
1051.000000	105.094220	2.704116	397552.935922	532.940000
1052.000000	105.194210	2.704221	397578.127897	533.030000
1053.000000	105.294156	2.704325	397603.319871	533.130000
1054.000000	105.394168	2.704221	397578.127897	533.210000
1055.000000	105.494178	2.704116	397552.935922	533.300000
1056.000000	105.594055	2.704743	397704.087769	533.380000
1057.000000	105.694076	2.704430	397628.511846	533.450000
1058.000000	105.794210	2.703698	397452.168024	533.520000
1059.000000	105.894328	2.704012	397527.743948	533.570000
1060.000000	105.994215	2.704221	397578.127897	533.650000
1061.000000	106.094228	2.704116	397552.935922	533.720000
1062.000000	106.194028	2.703907	397502.551973	533.810000
1063.000000	106.294172	2.703907	397502.551973	533.910000
1064.000000	106.394087	2.703907	397502.551973	534.000000
1065.000000	106.494244	2.704221	397578.127897	534.090000
1066.000000	106.594196	2.704012	397527.743948	534.190000
1067.000000	106.693938	2.703907	397502.551973	534.270000
1068.000000	106.794093	2.703594	397426.976050	534.350000
1069.000000	106.893952	2.703698	397452.168024	534.420000
1070.000000	106.993955	2.704116	397552.935922	534.490000
1071.000000	107.093939	2.703803	397477.359999	534.560000
1072.000000	107.193978	2.704221	397578.127897	534.620000
1073.000000	107.294043	2.704116	397552.935922	534.690000
1074.000000	107.394194	2.703907	397502.551973	534.780000
1075.000000	107.494130	2.703489	397401.784075	534.870000
1076.000000	107.594130	2.704325	397603.319871	534.960000
1077.000000	107.694093	2.703907	397502.551973	535.040000
1078.000000	107.794150	2.703594	397426.976050	535.130000
1079.000000	107.894033	2.703489	397401.784075	535.220000
1080.000000	107.994051	2.704012	397527.743948	535.300000
1081.000000	108.094055	2.703385	397376.592101	535.360000
1082.000000	108.194042	2.703698	397452.168024	535.440000
1083.000000	108.294009	2.703489	397401.784075	535.510000
1084.000000	108.394033	2.703803	397477.359999	535.580000
1085.000000	108.494057	2.703594	397426.976050	535.640000
1086.000000	108.594033	2.703698	397452.168024	535.730000
1087.000000	108.694028	2.703594	397426.976050	535.820000
1088.000000	108.794026	2.703698	397452.168024	535.920000
1089.000000	108.894004	2.703907	397502.551973	536.000000
1090.000000	108.994000	2.703385	397376.592101	536.090000
1091.000000	109.093993	2.703385	397376.592101	536.180000
1092.000000	109.194002	2.703803	397477.359999	536.270000
1093.000000	109.293943	2.703385	397376.592101	536.340000
1094.000000	109.393983	2.704012	397527.743948	536.410000
1095.000000	109.493968	2.703385	397376.592101	536.480000
1096.000000	109.593966	2.704325	397603.319871	536.550000
1097.000000	109.693966	2.703803	397477.359999	536.620000
1098.000000	109.793953	2.702966	397275.824202	536.700000
1099.000000	109.893954	2.702757	397225.440253	536.780000
1100.000000	109.993861	2.703489	397401.784075	536.880000
1101.000000	110.093871	2.703907	397502.551973	536.960000
1102.000000	110.193752	2.703489	397401.784075	537.050000
1103.000000	110.294010	2.703907	397502.551973	537.150000
1104.000000	110.393853	2.703803	397477.359999	537.230000
1105.000000	110.493926	2.703071	397301.016177	537.310000
1106.000000	110.593848	2.703698	397452.168024	537.380000
1107.000000	110.693751	2.703280	397351.400126	537.450000
1108.000000	110.793824	2.704012	397527.743948	537.520000
1109.000000	110.893827	2.703176	397326.208151	537.590000
1110.000000	110.993817	2.703489	397401.784075	537.660000
1111.000000	111.093785	2.703489	397401.784075	537.750000
1112.000000	111.193847	2.703385	397376.592101	537.840000
1113.000000	111.293787	2.703385	397376.592101	537.950000
1114.000000	111.393802	2.703489	397401.784075	538.030000
1115.000000	111.493823	2.703176	397326.208151	538.120000
1116.000000	111.593813	2.703385	397376.592101	538.200000
1117.000000	111.693830	2.703176	397326.208151	538.270000
1118.000000	111.793775	2.703803	397477.359999	538.350000
1119.000000	111.893783	2.703594	397426.976050	538.410000
1120.000000	111.993763	2.702757	397225.440253	538.480000
1121.000000	112.093779	2.702966	397275.824202	538.560000
1122.000000	112.193752	2.703280	397351.400126	538.620000
1123.000000	112.293755	2.703385	397376.592101	538.710000
1124.000000	112.393756	2.703385	397376.592101	538.810000
1125.000000	112.493729	2.703698	397452.168024	538.900000
1126.000000	112.593720	2.703071	397301.016177	538.990000
1127.000000	112.693735	2.703071	397301.016177	539.080000
1128.000000	112.793728	2.703594	397426.976050	539.160000
1129.000000	112.893704	2.703071	397301.016177	539.230000
1130.000000	112.993705	2.702757	397225.440253	539.310000
1131.000000	113.093721	2.703176	397326.208151	539.380000
1132.000000	113.193699	2.703176	397326.208151	539.440000
1133.000000	113.293691	2.702757	397225.440253	539.510000
1134.000000	113.393689	2.702862	397250.632228	539.580000
1135.000000	113.493676	2.702548	397175.056304	539.670000
1136.000000	113.593678	2.703071	397301.016177	539.770000
1137.000000	113.693660	2.703071	397301.016177	539.860000
1138.000000	113.793672	2.703071	397301.016177	539.960000
1139.000000	113.893662	2.702862	397250.632228	540.040000
1140.000000	113.993658	2.703176	397326.208151	540.120000
1141.000000	114.093674	2.702966	397275.824202	540.200000
1142.000000	114.193629	2.702757	397225.440253	540.270000
1143.000000	114.293589	2.702862	397250.632228	540.350000
1144.000000	114.393632	2.702966	397275.824202	540.410000
1145.000000	114.493610	2.702757	397225.440253	540.480000
1146.000000	114.593650	2.702548	397175.056304	540.550000
1147.000000	114.693640	2.702862	397250.632228	540.630000
1148.000000	114.793622	2.702757	397225.440253	540.730000
1149.000000	114.893605	2.702653	397200.248279	540.830000
1150.000000	114.993661	2.703385	397376.592101	540.930000
1151.000000	115.093581	2.702548	397175.056304	541.010000
1152.000000	115.193581	2.702862	397250.632228	541.090000
1153.000000	115.293587	2.702966	397275.824202	541.160000
1154.000000	115.393454	2.702966	397275.824202	541.230000
1155.000000	115.493615	2.702757	397225.440253	541.310000
1156.000000	115.593599	2.702339	397124.672355	541.380000
1157.000000	115.693621	2.703071	397301.016177	541.440000
1158.000000	115.793616	2.702548	397175.056304	541.520000
1159.000000	115.893595	2.702653	397200.248279	541.600000
1160.000000	115.993627	2.702026	397049.096432	541.690000
1161.000000	116.093559	2.702653	397200.248279	541.800000
1162.000000	116.193582	2.702548	397175.056304	541.900000
1163.000000	116.293571	2.702862	397250.632228	541.990000
1164.000000	116.393580	2.702548	397175.056304	542.060000
1165.000000	116.493570	2.702653	397200.248279	542.130000
1166.000000	116.593581	2.702862	397250.632228	542.200000
1167.000000	116.693557	2.702862	397250.632228	542.270000
1168.000000	116.793539	2.702757	397225.440253	542.350000
1169.000000	116.893552	2.703280	397351.400126	542.410000
1170.000000	116.993552	2.702966	397275.824202	542.490000
1171.000000	117.093505	2.702862	397250.632228	542.570000
1172.000000	117.193534	2.702862	397250.632228	542.650000
1173.000000	117.293464	2.702653	397200.248279	542.760000
1174.000000	117.393496	2.702339	397124.672355	542.850000
1175.000000	117.493517	2.702548	397175.056304	542.940000
1176.000000	117.593531	2.702757	397225.440253	543.010000
1177.000000	117.693502	2.702339	397124.672355	543.080000
1178.000000	117.793520	2.702548	397175.056304	543.160000
1179.000000	117.893490	2.702653	397200.248279	543.230000
1180.000000	117.993475	2.703176	397326.208151	543.300000
1181.000000	118.093502	2.702444	397149.864330	543.380000
1182.000000	118.193482	2.702862	397250.632228	543.450000
1183.000000	118.293468	2.703176	397326.208151	543.540000
1184.000000	118.393475	2.702757	397225.440253	543.620000
1185.000000	118.493465	2.702653	397200.248279	543.730000
1186.000000	118.593436	2.702653	397200.248279	543.820000
1187.000000	118.693443	2.702757	397225.440253	543.910000
1188.000000	118.793443	2.702653	397200.248279	543.980000
1189.000000	118.893404	2.702862	397250.632228	544.040000
1190.000000	118.993412	2.703071	397301.016177	544.110000
1191.000000	119.093452	2.702757	397225.440253	544.180000
1192.000000	119.193399	2.702757	397225.440253	544.260000
1193.000000	119.293360	2.702548	397175.056304	544.330000
1194.000000	119.393414	2.702757	397225.440253	544.410000
1195.000000	119.493408	2.702653	397200.248279	544.490000
1196.000000	119.593405	2.702757	397225.440253	544.570000
1197.000000	119.693353	2.702757	397225.440253	544.670000
1198.000000	119.793365	2.703071	397301.016177	544.770000
1199.000000	119.893401	2.702966	397275.824202	544.860000
1200.000000	119.993302	2.703698	397452.168024	544.940000
1201.000000	120.093341	2.702966	397275.824202	545.010000
1202.000000	120.193349	2.703071	397301.016177	545.070000
1203.000000	120.293243	2.703385	397376.592101	545.150000
1204.000000	120.393320	2.703280	397351.400126	545.220000
1205.000000	120.493348	2.703071	397301.016177	545.290000
1206.000000	120.593344	2.703280	397351.400126	545.370000
1207.000000	120.693319	2.702862	397250.632228	545.440000
1208.000000	120.793281	2.702339	397124.672355	545.540000
1209.000000	120.893314	2.702757	397225.440253	545.630000
1210.000000	120.993286	2.702966	397275.824202	545.740000
1211.000000	121.093319	2.702130	397074.288406	545.820000
1212.000000	121.193326	2.702862	397250.632228	545.900000
1213.000000	121.293263	2.702966	397275.824202	545.970000
1214.000000	121.393310	2.702548	397175.056304	546.030000
1215.000000	121.493295	2.702757	397225.440253	546.100000
1216.000000	121.593265	2.702966	397275.824202	546.180000
1217.000000	121.693283	2.702757	397225.440253	546.250000
1218.000000	121.793287	2.702966	397275.824202	546.320000
1219.000000	121.893224	2.702653	397200.248279	546.410000
1220.000000	121.993265	2.702653	397200.248279	546.500000
1221.000000	122.093280	2.703280	397351.400126	546.600000
1222.000000	122.193225	2.702757	397225.440253	546.690000
1223.000000	122.293091	2.703280	397351.400126	546.790000
1224.000000	122.393245	2.702444	397149.864330	546.870000
1225.000000	122.493194	2.703176	397326.208151	546.940000
1226.000000	122.593232	2.702653	397200.248279	547.010000
1227.000000	122.693237	2.702862	397250.632228	547.070000
1228.000000	122.793203	2.702444	397149.864330	547.140000
1229.000000	122.893242	2.702862	397250.632228	547.210000
1230.000000	122.993219	2.702966	397275.824202	547.300000
1231.000000	123.093186	2.702966	397275.824202	547.370000
1232.000000	123.193175	2.702966	397275.824202	547.460000
1233.000000	123.293161	2.702757	397225.440253	547.560000
1234.000000	123.393147	2.702339	397124.672355	547.650000
1235.000000	123.493174	2.702548	397175.056304	547.750000
1236.000000	123.593209	2.702862	397250.632228	547.820000
1237.000000	123.693134	2.702548	397175.056304	547.900000
1238.000000	123.793164	2.703176	397326.208151	547.970000
1239.000000	123.893165	2.702339	397124.672355	548.040000
1240.000000	123.993064	2.702653	397200.248279	548.100000
1241.000000	124.093121	2.702339	397124.672355	548.170000
1242.000000	124.193127	2.702548	397175.056304	548.260000
1243.000000	124.293073	2.703176	397326.208151	548.340000
1244.000000	124.393091	2.702548	397175.056304	548.420000
1245.000000	124.493103	2.702026	397049.096432	548.520000
1246.000000	124.593074	2.702757	397225.440253	548.620000
1247.000000	124.693034	2.702757	397225.440253	548.710000
1248.000000	124.793182	2.703385	397376.592101	548.790000
1249.000000	124.893131	2.702339	397124.672355	548.850000
1250.000000	124.993137	2.702757	397225.440253	548.920000
1251.000000	125.093155	2.702339	397124.672355	548.990000
1252.000000	125.193056	2.702653	397200.248279	549.050000
1253.000000	125.293028	2.702653	397200.248279	549.130000
1254.000000	125.393168	2.702653	397200.248279	549.210000
1255.000000	125.493111	2.703176	397326.208151	549.310000
1256.000000	125.593000	2.702235	397099.480381	549.390000
1257.000000	125.693039	2.702444	397149.864330	549.490000
1258.000000	125.792859	2.702757	397225.440253	549.580000
1259.000000	125.892961	2.702862	397250.632228	549.660000
1260.000000	125.992967	2.702548	397175.056304	549.750000
1261.000000	126.092858	2.702444	397149.864330	549.830000
1262.000000	126.192866	2.702653	397200.248279	549.880000
1263.000000	126.292841	2.702444	397149.864330	549.950000
1264.000000	126.393021	2.703176	397326.208151	550.020000
1265.000000	126.493097	2.702130	397074.288406	550.090000
1266.000000	126.593083	2.702653	397200.248279	550.180000
1267.000000	126.693106	2.702444	397149.864330	550.270000
1268.000000	126.793102	2.702862	397250.632228	550.360000
1269.000000	126.892996	2.702548	397175.056304	550.450000
1270.000000	126.992936	2.702235	397099.480381	550.540000
1271.000000	127.092956	2.703071	397301.016177	550.610000
1272.000000	127.192973	2.702653	397200.248279	550.700000
1273.000000	127.292930	2.702339	397124.672355	550.770000
1274.000000	127.392959	2.702235	397099.480381	550.840000
1275.000000	127.492947	2.702026	397049.096432	550.910000
1276.000000	127.592903	2.702444	397149.864330	550.960000
1277.000000	127.692935	2.702130	397074.288406	551.040000
1278.000000	127.792938	2.702235	397099.480381	551.130000
1279.000000	127.892817	2.702548	397175.056304	551.220000
1280.000000	127.992922	2.702757	397225.440253	551.310000
1281.000000	128.092920	2.702130	397074.288406	551.410000
1282.000000	128.192880	2.701817	396998.712482	551.490000
1283.000000	128.292952	2.702862	397250.632228	551.570000
1284.000000	128.392905	2.702339	397124.672355	551.650000
1285.000000	128.492870	2.702339	397124.672355	551.720000
1286.000000	128.592900	2.702653	397200.248279	551.790000
1287.000000	128.692745	2.702339	397124.672355	551.860000
1288.000000	128.792849	2.702548	397175.056304	551.920000
1289.000000	128.892876	2.702339	397124.672355	552.000000
1290.000000	128.992879	2.702444	397149.864330	552.090000
1291.000000	129.092807	2.702548	397175.056304	552.180000
1292.000000	129.192862	2.702130	397074.288406	552.280000
1293.000000	129.292761	2.702548	397175.056304	552.370000
1294.000000	129.392808	2.702653	397200.248279	552.460000
1295.000000	129.492855	2.702444	397149.864330	552.540000
1296.000000	129.592825	2.702339	397124.672355	552.610000
1297.000000	129.692769	2.702653	397200.248279	552.680000
1298.000000	129.792826	2.702653	397200.248279	552.760000
1299.000000	129.892811	2.702130	397074.288406	552.840000
1300.000000	129.992787	2.701817	396998.712482	552.900000
1301.000000	130.092817	2.702235	397099.480381	552.970000
1302.000000	130.192738	2.701503	396923.136559	553.050000
1303.000000	130.292762	2.701921	397023.904457	553.140000
1304.000000	130.392786	2.702339	397124.672355	553.240000
1305.000000	130.492792	2.702339	397124.672355	553.330000
1306.000000	130.592750	2.702444	397149.864330	553.420000
1307.000000	130.692790	2.702444	397149.864330	553.500000
1308.000000	130.792770	2.702026	397049.096432	553.570000
1309.000000	130.892735	2.702444	397149.864330	553.640000
1310.000000	130.992770	2.702130	397074.288406	553.710000
1311.000000	131.092770	2.702444	397149.864330	553.790000
1312.000000	131.192712	2.701817	396998.712482	553.860000
1313.000000	131.292748	2.701712	396973.520508	553.930000
1314.000000	131.392649	2.702130	397074.288406	554.000000
1315.000000	131.492711	2.702339	397124.672355	554.090000
1316.000000	131.592732	2.702130	397074.288406	554.190000
1317.000000	131.692719	2.702235	397099.480381	554.290000
1318.000000	131.792680	2.701921	397023.904457	554.380000
1319.000000	131.892547	2.701921	397023.904457	554.460000
1320.000000	131.992739	2.702339	397124.672355	554.530000
1321.000000	132.092671	2.702026	397049.096432	554.600000
1322.000000	132.192693	2.702339	397124.672355	554.670000
1323.000000	132.292669	2.702339	397124.672355	554.740000
1324.000000	132.392666	2.702444	397149.864330	554.820000
1325.000000	132.492672	2.702235	397099.480381	554.880000
1326.000000	132.592645	2.702026	397049.096432	554.960000
1327.000000	132.692636	2.702130	397074.288406	555.050000
1328.000000	132.792658	2.702130	397074.288406	555.140000
1329.000000	132.892645	2.701817	396998.712482	555.250000
1330.000000	132.992525	2.701921	397023.904457	555.340000
1331.000000	133.092645	2.702130	397074.288406	555.430000
1332.000000	133.192423	2.701921	397023.904457	555.500000
1333.000000	133.292450	2.701817	396998.712482	555.570000
1334.000000	133.392602	2.701921	397023.904457	555.630000
1335.000000	133.492607	2.702235	397099.480381	555.700000
1336.000000	133.592574	2.701921	397023.904457	555.780000
1337.000000	133.692611	2.701712	396973.520508	555.850000
1338.000000	133.792596	2.702235	397099.480381	555.920000
1339.000000	133.892565	2.701712	396973.520508	556.000000
1340.000000	133.992591	2.701817	396998.712482	556.090000
1341.000000	134.092581	2.701817	396998.712482	556.200000
1342.000000	134.192557	2.702339	397124.672355	556.280000
1343.000000	134.292564	2.701817	396998.712482	556.380000
1344.000000	134.392561	2.702026	397049.096432	556.470000
1345.000000	134.492527	2.701817	396998.712482	556.540000
1346.000000	134.592570	2.701712	396973.520508	556.600000
1347.000000	134.692545	2.701921	397023.904457	556.670000
1348.000000	134.792493	2.701294	396872.752610	556.750000
1349.000000	134.892523	2.702026	397049.096432	556.810000
1350.000000	134.992520	2.702130	397074.288406	556.880000
1351.000000	135.092480	2.701503	396923.136559	556.960000
1352.000000	135.192512	2.701712	396973.520508	557.060000
1353.000000	135.292468	2.702235	397099.480381	557.150000
1354.000000	135.392463	2.701608	396948.328533	557.250000
1355.000000	135.492508	2.701608	396948.328533	557.340000
1356.000000	135.592505	2.701817	396998.712482	557.420000
1357.000000	135.692471	2.701712	396973.520508	557.480000
1358.000000	135.792473	2.701608	396948.328533	557.540000
1359.000000	135.892494	2.702339	397124.672355	557.610000
1360.000000	135.992457	2.701503	396923.136559	557.690000
1361.000000	136.092470	2.701921	397023.904457	557.770000
1362.000000	136.192471	2.701503	396923.136559	557.840000
1363.000000	136.292430	2.701712	396973.520508	557.930000
1364.000000	136.392457	2.701817	396998.712482	558.020000
1365.000000	136.492460	2.701294	396872.752610	558.110000
1366.000000	136.592414	2.701190	396847.560635	558.210000
1367.000000	136.692429	2.701608	396948.328533	558.300000
1368.000000	136.792368	2.701921	397023.904457	558.380000
1369.000000	136.892372	2.701608	396948.328533	558.430000
1370.000000	136.992425	2.701608	396948.328533	558.500000
1371.000000	137.092405	2.701608	396948.328533	558.570000
1372.000000	137.192262	2.701608	396948.328533	558.650000
1373.000000	137.292389	2.701712	396973.520508	558.720000
1374.000000	137.392382	2.701921	397023.904457	558.800000
1375.000000	137.492354	2.701294	396872.752610	558.890000
1376.000000	137.592383	2.701608	396948.328533	558.980000
1377.000000	137.692264	2.701712	396973.520508	559.070000
1378.000000	137.792352	2.701712	396973.520508	559.160000
1379.000000	137.892363	2.701712	396973.520508	559.250000
1380.000000	137.992353	2.701921	397023.904457	559.320000
1381.000000	138.092307	2.701712	396973.520508	559.390000
1382.000000	138.192344	2.701190	396847.560635	559.450000
1383.000000	138.292296	2.700981	396797.176686	559.520000
1384.000000	138.392288	2.701503	396923.136559	559.600000
1385.000000	138.492325	2.701399	396897.944584	559.680000
1386.000000	138.592321	2.701817	396998.712482	559.760000
1387.000000	138.692287	2.700876	396771.984712	559.860000
1388.000000	138.792313	2.701190	396847.560635	559.940000
1389.000000	138.892303	2.701399	396897.944584	560.030000
1390.000000	138.992229	2.701503	396923.136559	560.120000
1391.000000	139.092306	2.701190	396847.560635	560.210000
1392.000000	139.192292	2.701608	396948.328533	560.280000
1393.000000	139.292254	2.701399	396897.944584	560.350000
1394.000000	139.392269	2.701190	396847.560635	560.410000
1395.000000	139.492289	2.701294	396872.752610	560.480000
1396.000000	139.592247	2.700981	396797.176686	560.540000
1397.000000	139.692272	2.701608	396948.328533	560.630000
1398.000000	139.792268	2.700981	396797.176686	560.730000
1399.000000	139.892233	2.701085	396822.368661	560.830000
1400.000000	139.992252	2.701294	396872.752610	560.910000
1401.000000	140.092245	2.701190	396847.560635	561.000000
1402.000000	140.192052	2.701294	396872.752610	561.090000
1403.000000	140.292225	2.701817	396998.712482	561.160000
1404.000000	140.392223	2.701294	396872.752610	561.240000
1405.000000	140.492094	2.701503	396923.136559	561.310000
1406.000000	140.592227	2.702026	397049.096432	561.380000
1407.000000	140.692220	2.701085	396822.368661	561.450000
1408.000000	140.792157	2.701085	396822.368661	561.500000
1409.000000	140.892119	2.701503	396923.136559	561.580000
1410.000000	140.992164	2.701817	396998.712482	561.680000
1411.000000	141.092143	2.701399	396897.944584	561.780000
1412.000000	141.192172	2.700876	396771.984712	561.870000
1413.000000	141.292135	2.701399	396897.944584	561.950000
1414.000000	141.392119	2.700667	396721.600763	562.030000
1415.000000	141.492152	2.701294	396872.752610	562.110000
1416.000000	141.592170	2.701085	396822.368661	562.180000
1417.000000	141.692111	2.701503	396923.136559	562.250000
1418.000000	141.792136	2.700981	396797.176686	562.330000
1419.000000	141.892163	2.701085	396822.368661	562.390000
1420.000000	141.992030	2.701294	396872.752610	562.460000
1421.000000	142.092112	2.701190	396847.560635	562.540000
1422.000000	142.192074	2.701085	396822.368661	562.640000
1423.000000	142.292122	2.700876	396771.984712	562.740000
1424.000000	142.392139	2.701190	396847.560635	562.840000
1425.000000	142.492089	2.701190	396847.560635	562.920000
1426.000000	142.592059	2.701294	396872.752610	562.990000
1427.000000	142.692096	2.701190	396847.560635	563.070000
1428.000000	142.792081	2.701817	396998.712482	563.140000
1429.000000	142.892119	2.701190	396847.560635	563.210000
1430.000000	142.992086	2.701399	396897.944584	563.290000
1431.000000	143.092053	2.700981	396797.176686	563.350000
1432.000000	143.192016	2.700667	396721.600763	563.430000
1433.000000	143.292129	2.701399	396897.944584	563.500000
1434.000000	143.392021	2.701085	396822.368661	563.600000
1435.000000	143.491982	2.700981	396797.176686	563.700000
1436.000000	143.591881	2.701503	396923.136559	563.800000
1437.000000	143.692109	2.701190	396847.560635	563.880000
1438.000000	143.792046	2.701190	396847.560635	563.950000
1439.000000	143.891856	2.701294	396872.752610	564.020000
1440.000000	143.992063	2.701085	396822.368661	564.090000
1441.000000	144.091842	2.701085	396822.368661	564.160000
1442.000000	144.191987	2.701294	396872.752610	564.240000
1443.000000	144.292025	2.701190	396847.560635	564.300000
1444.000000	144.391943	2.700981	396797.176686	564.380000
1445.000000	144.491909	2.701294	396872.752610	564.470000
1446.000000	144.591964	2.701085	396822.368661	564.560000
1447.000000	144.691767	2.701085	396822.368661	564.660000
1448.000000	144.791928	2.700772	396746.792737	564.750000
1449.000000	144.891789	2.700981	396797.176686	564.830000
1450.000000	144.991788	2.700876	396771.984712	564.900000
1451.000000	145.091761	2.700981	396797.176686	564.970000
1452.000000	145.191777	2.700876	396771.984712	565.030000
1453.000000	145.291860	2.701085	396822.368661	565.100000
1454.000000	145.391943	2.701399	396897.944584	565.190000
1455.000000	145.492052	2.701294	396872.752610	565.260000
1456.000000	145.592002	2.700876	396771.984712	565.340000
1457.000000	145.692043	2.701294	396872.752610	565.420000
1458.000000	145.792018	2.701294	396872.752610	565.510000
1459.000000	145.891898	2.701608	396948.328533	565.610000
1460.000000	145.991891	2.701294	396872.752610	565.700000
1461.000000	146.091889	2.700667	396721.600763	565.770000
1462.000000	146.191842	2.701399	396897.944584	565.850000
1463.000000	146.291781	2.700876	396771.984712	565.920000
1464.000000	146.391880	2.700772	396746.792737	565.990000
1465.000000	146.491848	2.701190	396847.560635	566.050000
1466.000000	146.591851	2.701294	396872.752610	566.130000
1467.000000	146.691840	2.700772	396746.792737	566.210000
1468.000000	146.791835	2.701399	396897.944584	566.300000
1469.000000	146.891843	2.701085	396822.368661	566.390000
1470.000000	146.991844	2.701085	396822.368661	566.480000
1471.000000	147.091809	2.700981	396797.176686	566.560000
1472.000000	147.191830	2.700563	396696.408788	566.640000
1473.000000	147.291672	2.700981	396797.176686	566.720000
1474.000000	147.391786	2.701294	396872.752610	566.790000
1475.000000	147.491834	2.701399	396897.944584	566.870000
1476.000000	147.591800	2.700981	396797.176686	566.940000
1477.000000	147.691774	2.701190	396847.560635	567.010000
1478.000000	147.791791	2.701190	396847.560635	567.080000
1479.000000	147.891787	2.700667	396721.600763	567.150000
1480.000000	147.991754	2.700772	396746.792737	567.250000
1481.000000	148.091748	2.700772	396746.792737	567.350000
1482.000000	148.191766	2.700981	396797.176686	567.450000
1483.000000	148.291730	2.701294	396872.752610	567.540000
1484.000000	148.391761	2.700876	396771.984712	567.610000
1485.000000	148.491747	2.700876	396771.984712	567.690000
1486.000000	148.591728	2.700981	396797.176686	567.760000
1487.000000	148.691741	2.701085	396822.368661	567.830000
1488.000000	148.791741	2.700772	396746.792737	567.900000
1489.000000	148.891718	2.700981	396797.176686	567.970000
1490.000000	148.991729	2.700876	396771.984712	568.050000
1491.000000	149.091718	2.701190	396847.560635	568.130000
1492.000000	149.191680	2.700876	396771.984712	568.230000
1493.000000	149.291715	2.700876	396771.984712	568.320000
1494.000000	149.391696	2.700772	396746.792737	568.420000
1495.000000	149.491666	2.700876	396771.984712	568.500000
1496.000000	149.591701	2.701085	396822.368661	568.580000
1497.000000	149.691685	2.700667	396721.600763	568.650000
1498.000000	149.791657	2.701503	396923.136559	568.710000
1499.000000	149.891702	2.701294	396872.752610	568.780000
1500.000000	149.991687	2.701294	396872.752610	568.850000
1501.000000	150.091646	2.700354	396646.024839	568.920000
1502.000000	150.191653	2.700876	396771.984712	569.000000
1503.000000	150.291567	2.700772	396746.792737	569.090000
1504.000000	150.391616	2.700981	396797.176686	569.180000
1505.000000	150.491664	2.700772	396746.792737	569.270000
1506.000000	150.591626	2.700563	396696.408788	569.360000
1507.000000	150.691607	2.700876	396771.984712	569.450000
1508.000000	150.791626	2.701399	396897.944584	569.530000
1509.000000	150.891616	2.700981	396797.176686	569.600000
1510.000000	150.991519	2.700563	396696.408788	569.680000
1511.000000	151.091623	2.700876	396771.984712	569.740000
1512.000000	151.191609	2.700876	396771.984712	569.810000
1513.000000	151.291639	2.700458	396671.216813	569.880000
1514.000000	151.391567	2.701190	396847.560635	569.960000
1515.000000	151.491582	2.700667	396721.600763	570.050000
1516.000000	151.591575	2.700667	396721.600763	570.140000
1517.000000	151.691574	2.700876	396771.984712	570.230000
1518.000000	151.791581	2.700772	396746.792737	570.330000
1519.000000	151.891532	2.701190	396847.560635	570.410000
1520.000000	151.991566	2.700563	396696.408788	570.490000
1521.000000	152.091545	2.700981	396797.176686	570.560000
1522.000000	152.191507	2.700772	396746.792737	570.630000
1523.000000	152.291557	2.701294	396872.752610	570.700000
1524.000000	152.391527	2.700772	396746.792737	570.760000
1525.000000	152.491495	2.701294	396872.752610	570.830000
1526.000000	152.591513	2.700667	396721.600763	570.910000
1527.000000	152.691513	2.701190	396847.560635	570.990000
1528.000000	152.791467	2.700981	396797.176686	571.090000
1529.000000	152.891531	2.701085	396822.368661	571.180000
1530.000000	152.991500	2.700458	396671.216813	571.270000
1531.000000	153.091471	2.700981	396797.176686	571.360000
1532.000000	153.191495	2.701085	396822.368661	571.440000
1533.000000	153.291437	2.700458	396671.216813	571.510000
1534.000000	153.391448	2.700876	396771.984712	571.580000
1535.000000	153.491470	2.700981	396797.176686	571.650000
1536.000000	153.591460	2.701190	396847.560635	571.710000
1537.000000	153.691425	2.700772	396746.792737	571.780000
1538.000000	153.791326	2.700249	396620.832864	571.850000
1539.000000	153.891454	2.701190	396847.560635	571.940000
1540.000000	153.991396	2.700876	396771.984712	572.030000
1541.000000	154.091433	2.700772	396746.792737	572.120000
1542.000000	154.191457	2.700667	396721.600763	572.220000
1543.000000	154.291318	2.700876	396771.984712	572.300000
1544.000000	154.391387	2.701085	396822.368661	572.380000
1545.000000	154.491411	2.700981	396797.176686	572.460000
1546.000000	154.591374	2.700772	396746.792737	572.530000
1547.000000	154.691398	2.700772	396746.792737	572.600000
1548.000000	154.791394	2.700145	396595.640890	572.650000
1549.000000	154.891363	2.700563	396696.408788	572.730000
1550.000000	154.991402	2.700667	396721.600763	572.800000
1551.000000	155.091384	2.700667	396721.600763	572.890000
1552.000000	155.191353	2.700563	396696.408788	572.970000
1553.000000	155.291356	2.700772	396746.792737	573.060000
1554.000000	155.391363	2.701085	396822.368661	573.160000
1555.000000	155.491331	2.700981	396797.176686	573.250000
1556.000000	155.591344	2.700772	396746.792737	573.330000
1557.000000	155.691248	2.700981	396797.176686	573.410000
1558.000000	155.791309	2.700876	396771.984712	573.490000
1559.000000	155.891334	2.700458	396671.216813	573.560000
1560.000000	155.991322	2.701294	396872.752610	573.630000
1561.000000	156.091275	2.700667	396721.600763	573.690000
1562.000000	156.191321	2.700981	396797.176686	573.760000
1563.000000	156.291277	2.701190	396847.560635	573.850000
1564.000000	156.391266	2.700458	396671.216813	573.940000
1565.000000	156.491308	2.700876	396771.984712	574.030000
1566.000000	156.591297	2.700040	396570.448915	574.120000
1567.000000	156.691257	2.700772	396746.792737	574.220000
1568.000000	156.791245	2.700876	396771.984712	574.300000
1569.000000	156.891281	2.700667	396721.600763	574.370000
1570.000000	156.991235	2.700772	396746.792737	574.430000
1571.000000	157.091283	2.700563	396696.408788	574.500000
1572.000000	157.191260	2.700667	396721.600763	574.570000
1573.000000	157.291217	2.700563	396696.408788	574.640000
1574.000000	157.390984	2.699831	396520.064966	574.710000
1575.000000	157.491237	2.700667	396721.600763	574.800000
1576.000000	157.591212	2.700458	396671.216813	574.890000
1577.000000	157.691234	2.700354	396646.024839	574.980000
1578.000000	157.791227	2.700981	396797.176686	575.080000
1579.000000	157.891175	2.700563	396696.408788	575.160000
1580.000000	157.991212	2.700249	396620.832864	575.240000
1581.000000	158.091199	2.700040	396570.448915	575.310000
1582.000000	158.191173	2.700667	396721.600763	575.380000
1583.000000	158.291202	2.701085	396822.368661	575.450000
1584.000000	158.391189	2.700772	396746.792737	575.520000
1585.000000	158.491166	2.700354	396646.024839	575.590000
1586.000000	158.591182	2.700354	396646.024839	575.670000
1587.000000	158.691175	2.700563	396696.408788	575.760000
1588.000000	158.791163	2.700458	396671.216813	575.850000
1589.000000	158.891001	2.700354	396646.024839	575.950000
1590.000000	158.991152	2.700354	396646.024839	576.040000
1591.000000	159.091118	2.700458	396671.216813	576.120000
1592.000000	159.191168	2.700563	396696.408788	576.190000
1593.000000	159.291094	2.700354	396646.024839	576.250000
1594.000000	159.391117	2.699936	396545.256941	576.330000
1595.000000	159.491124	2.700667	396721.600763	576.400000
1596.000000	159.591090	2.700458	396671.216813	576.470000
1597.000000	159.691101	2.700563	396696.408788	576.540000
1598.000000	159.791112	2.700249	396620.832864	576.620000
1599.000000	159.891116	2.700145	396595.640890	576.710000
1600.000000	159.990972	2.700249	396620.832864	576.810000
1601.000000	160.091086	2.699831	396520.064966	576.900000
1602.000000	160.190905	2.699831	396520.064966	576.990000
1603.000000	160.291045	2.700354	396646.024839	577.070000
1604.000000	160.391064	2.700563	396696.408788	577.150000
1605.000000	160.491040	2.699831	396520.064966	577.210000
1606.000000	160.591038	2.700249	396620.832864	577.280000
1607.000000	160.691048	2.700563	396696.408788	577.350000
1608.000000	160.791062	2.700563	396696.408788	577.430000
1609.000000	160.891033	2.700040	396570.448915	577.500000
1610.000000	160.991053	2.700145	396595.640890	577.580000
1611.000000	161.091049	2.700354	396646.024839	577.670000
1612.000000	161.191004	2.699936	396545.256941	577.770000
1613.000000	161.291029	2.700354	396646.024839	577.860000
1614.000000	161.391029	2.700354	396646.024839	577.940000
1615.000000	161.490974	2.700040	396570.448915	578.020000
1616.000000	161.591002	2.700249	396620.832864	578.080000
1617.000000	161.691002	2.699726	396494.872992	578.140000
1618.000000	161.790966	2.699936	396545.256941	578.200000
1619.000000	161.890987	2.700354	396646.024839	578.280000
1620.000000	161.990979	2.699831	396520.064966	578.360000
1621.000000	162.090931	2.700145	396595.640890	578.440000
1622.000000	162.190961	2.699622	396469.681017	578.520000
1623.000000	162.290950	2.700040	396570.448915	578.610000
1624.000000	162.390912	2.700040	396570.448915	578.700000
1625.000000	162.490939	2.700040	396570.448915	578.790000
1626.000000	162.590928	2.699517	396444.489043	578.880000
1627.000000	162.690792	2.699936	396545.256941	578.950000
1628.000000	162.790930	2.699726	396494.872992	579.020000
1629.000000	162.890935	2.699413	396419.297068	579.080000
1630.000000	162.990948	2.699726	396494.872992	579.150000
1631.000000	163.090920	2.699517	396444.489043	579.220000
1632.000000	163.190867	2.699308	396394.105094	579.300000
1633.000000	163.290856	2.699726	396494.872992	579.380000
1634.000000	163.390910	2.699308	396394.105094	579.470000
1635.000000	163.490962	2.699936	396545.256941	579.560000
1636.000000	163.590828	2.699622	396469.681017	579.650000
1637.000000	163.690860	2.700249	396620.832864	579.730000
1638.000000	163.790726	2.699831	396520.064966	579.820000
1639.000000	163.890671	2.699517	396444.489043	579.890000
1640.000000	163.990780	2.700249	396620.832864	579.960000
1641.000000	164.090723	2.700145	396595.640890	580.020000
1642.000000	164.190678	2.699413	396419.297068	580.080000
1643.000000	164.290793	2.699308	396394.105094	580.160000
1644.000000	164.390908	2.699099	396343.721145	580.250000
1645.000000	164.490906	2.699308	396394.105094	580.340000
1646.000000	164.591007	2.699517	396444.489043	580.430000
1647.000000	164.690836	2.699831	396520.064966	580.520000
1648.000000	164.790902	2.699622	396469.681017	580.600000
1649.000000	164.890822	2.699936	396545.256941	580.680000
1650.000000	164.990819	2.699622	396469.681017	580.760000
1651.000000	165.090773	2.699099	396343.721145	580.830000
1652.000000	165.190797	2.699517	396444.489043	580.910000
1653.000000	165.290828	2.699831	396520.064966	580.970000
1654.000000	165.390758	2.700040	396570.448915	581.030000
1655.000000	165.490761	2.699936	396545.256941	581.100000
1656.000000	165.590784	2.699308	396394.105094	581.190000
1657.000000	165.690753	2.699831	396520.064966	581.290000
1658.000000	165.790763	2.699517	396444.489043	581.380000
1659.000000	165.890767	2.699622	396469.681017	581.480000
1660.000000	165.990753	2.699413	396419.297068	581.560000
1661.000000	166.090766	2.699308	396394.105094	581.630000
1662.000000	166.190737	2.699622	396469.681017	581.690000
1663.000000	166.290723	2.699413	396419.297068	581.760000
1664.000000	166.390744	2.699726	396494.872992	581.840000
1665.000000	166.490716	2.699413	396419.297068	581.920000
1666.000000	166.590699	2.699413	396419.297068	581.980000
1667.000000	166.690712	2.699204	396368.913119	582.070000
1668.000000	166.790715	2.699413	396419.297068	582.150000
1669.000000	166.890672	2.699517	396444.489043	582.240000
1670.000000	166.990698	2.699517	396444.489043	582.330000
1671.000000	167.090691	2.699517	396444.489043	582.430000
1672.000000	167.190662	2.699099	396343.721145	582.520000
1673.000000	167.290684	2.699726	396494.872992	582.590000
1674.000000	167.390688	2.699308	396394.105094	582.650000
1675.000000	167.490636	2.699726	396494.872992	582.720000
1676.000000	167.590662	2.699726	396494.872992	582.790000
1677.000000	167.690659	2.699622	396469.681017	582.860000
1678.000000	167.790629	2.699622	396469.681017	582.940000
1679.000000	167.890644	2.699622	396469.681017	583.020000
1680.000000	167.990632	2.699831	396520.064966	583.110000
1681.000000	168.090597	2.699726	396494.872992	583.210000
1682.000000	168.190632	2.700040	396570.448915	583.290000
1683.000000	168.290590	2.699936	396545.256941	583.380000
1684.000000	168.390597	2.699726	396494.872992	583.460000
1685.000000	168.490626	2.699831	396520.064966	583.530000
1686.000000	168.590656	2.699622	396469.681017	583.590000
1687.000000	168.690580	2.700040	396570.448915	583.660000
1688.000000	168.790593	2.699308	396394.105094	583.730000
1689.000000	168.890592	2.699622	396469.681017	583.810000
1690.000000	168.990460	2.700040	396570.448915	583.890000
1691.000000	169.090558	2.699517	396444.489043	583.970000
1692.000000	169.190590	2.699622	396469.681017	584.070000
1693.000000	169.290555	2.699517	396444.489043	584.160000
1694.000000	169.390553	2.699517	396444.489043	584.250000
1695.000000	169.490453	2.699622	396469.681017	584.330000
1696.000000	169.590532	2.699099	396343.721145	584.410000
1697.000000	169.690558	2.699622	396469.681017	584.470000
1698.000000	169.790557	2.700040	396570.448915	584.540000
1699.000000	169.890530	2.699099	396343.721145	584.610000
1700.000000	169.990532	2.699622	396469.681017	584.680000
1701.000000	170.090404	2.699517	396444.489043	584.760000
1702.000000	170.190484	2.699726	396494.872992	584.840000
1703.000000	170.290528	2.699831	396520.064966	584.930000
1704.000000	170.390515	2.699204	396368.913119	585.020000
1705.000000	170.490475	2.699726	396494.872992	585.120000
1706.000000	170.590500	2.699831	396520.064966	585.200000
1707.000000	170.690511	2.699413	396419.297068	585.270000
1708.000000	170.790484	2.699726	396494.872992	585.350000
1709.000000	170.890483	2.699204	396368.913119	585.420000
1710.000000	170.990474	2.699726	396494.872992	585.480000
1711.000000	171.090436	2.699308	396394.105094	585.550000
1712.000000	171.190476	2.699413	396419.297068	585.630000
1713.000000	171.290311	2.699936	396545.256941	585.700000
1714.000000	171.390430	2.699413	396419.297068	585.780000
1715.000000	171.490449	2.699204	396368.913119	585.870000
1716.000000	171.590441	2.699726	396494.872992	585.970000
1717.000000	171.690384	2.699413	396419.297068	586.070000
1718.000000	171.790382	2.699308	396394.105094	586.150000
1719.000000	171.890450	2.699413	396419.297068	586.220000
1720.000000	171.990396	2.699413	396419.297068	586.290000
1721.000000	172.090410	2.699517	396444.489043	586.360000
1722.000000	172.190402	2.700040	396570.448915	586.430000
1723.000000	172.290467	2.699726	396494.872992	586.500000
1724.000000	172.390408	2.699936	396545.256941	586.570000
1725.000000	172.490387	2.700249	396620.832864	586.650000
1726.000000	172.590356	2.699831	396520.064966	586.740000
1727.000000	172.690382	2.699204	396368.913119	586.820000
1728.000000	172.790368	2.699413	396419.297068	586.920000
1729.000000	172.890364	2.699726	396494.872992	587.010000
1730.000000	172.990363	2.699308	396394.105094	587.100000
1731.000000	173.090349	2.699726	396494.872992	587.170000
1732.000000	173.190321	2.699099	396343.721145	587.230000
1733.000000	173.290179	2.699517	396444.489043	587.300000
1734.000000	173.390337	2.700040	396570.448915	587.370000
1735.000000	173.490315	2.699726	396494.872992	587.440000
1736.000000	173.590318	2.700040	396570.448915	587.520000
1737.000000	173.690304	2.699413	396419.297068	587.590000
1738.000000	173.790280	2.699831	396520.064966	587.680000
1739.000000	173.890322	2.700145	396595.640890	587.770000
1740.000000	173.990318	2.699308	396394.105094	587.870000
1741.000000	174.090279	2.700040	396570.448915	587.960000
1742.000000	174.190308	2.699413	396419.297068	588.040000
1743.000000	174.290270	2.700040	396570.448915	588.110000
1744.000000	174.390250	2.699831	396520.064966	588.180000
1745.000000	174.490286	2.699622	396469.681017	588.250000
1746.000000	174.590269	2.699622	396469.681017	588.310000
1747.000000	174.690231	2.700145	396595.640890	588.380000
1748.000000	174.790262	2.699517	396444.489043	588.460000
1749.000000	174.890307	2.699099	396343.721145	588.540000
1750.000000	174.990214	2.699726	396494.872992	588.630000
1751.000000	175.090240	2.699622	396469.681017	588.720000
1752.000000	175.190247	2.699831	396520.064966	588.820000
1753.000000	175.290220	2.699413	396419.297068	588.920000
1754.000000	175.390197	2.699308	396394.105094	588.990000
1755.000000	175.490167	2.699622	396469.681017	589.050000
1756.000000	175.590192	2.699936	396545.256941	589.120000
1757.000000	175.690208	2.699517	396444.489043	589.190000
1758.000000	175.790202	2.699726	396494.872992	589.260000
1759.000000	175.890159	2.699622	396469.681017	589.330000
1760.000000	175.990202	2.699204	396368.913119	589.400000
1761.000000	176.090178	2.699204	396368.913119	589.490000
1762.000000	176.190161	2.699726	396494.872992	589.580000
1763.000000	176.290154	2.699517	396444.489043	589.660000
1764.000000	176.390185	2.699413	396419.297068	589.750000
1765.000000	176.490126	2.699308	396394.105094	589.850000
1766.000000	176.590161	2.699936	396545.256941	589.930000
1767.000000	176.690152	2.700145	396595.640890	589.990000
1768.000000	176.790133	2.699726	396494.872992	590.060000
1769.000000	176.890141	2.699622	396469.681017	590.130000
1770.000000	176.990128	2.699622	396469.681017	590.210000
1771.000000	177.090061	2.699204	396368.913119	590.280000
1772.000000	177.190144	2.699308	396394.105094	590.350000
1773.000000	177.290073	2.699308	396394.105094	590.440000
1774.000000	177.390084	2.699204	396368.913119	590.530000
1775.000000	177.490107	2.699413	396419.297068	590.620000
1776.000000	177.590057	2.699308	396394.105094	590.720000
1777.000000	177.690053	2.699204	396368.913119	590.800000
1778.000000	177.790063	2.699308	396394.105094	590.870000
1779.000000	177.890018	2.699413	396419.297068	590.940000
1780.000000	177.990022	2.699308	396394.105094	591.000000
1781.000000	178.090073	2.699831	396520.064966	591.070000
1782.000000	178.190067	2.699204	396368.913119	591.150000
1783.000000	178.290018	2.699204	396368.913119	591.220000
1784.000000	178.390052	2.699622	396469.681017	591.300000
1785.000000	178.490000	2.699726	396494.872992	591.390000
1786.000000	178.590001	2.699099	396343.721145	591.480000
1787.000000	178.690045	2.699308	396394.105094	591.570000
1788.000000	178.790033	2.699099	396343.721145	591.670000
1789.000000	178.889998	2.698995	396318.529170	591.740000
1790.000000	178.990033	2.699413	396419.297068	591.810000
1791.000000	179.090010	2.699308	396394.105094	591.870000
1792.000000	179.189957	2.699413	396419.297068	591.940000
1793.000000	179.289945	2.699517	396444.489043	592.010000
1794.000000	179.389967	2.698995	396318.529170	592.090000
1795.000000	179.489980	2.698786	396268.145221	592.160000
1796.000000	179.589977	2.699517	396444.489043	592.240000
1797.000000	179.689969	2.699308	396394.105094	592.340000
1798.000000	179.789967	2.699204	396368.913119	592.430000
1799.000000	179.889916	2.698681	396242.953246	592.520000
1800.000000	179.989906	2.698995	396318.529170	592.600000
