2023-02-05	09:43:29	Data rate [Hz]	10	
Sample Nb.	Measurement time	Voltage	Pressure	Weight
[-]	[s]	[V]	[Pa]	[g]
1.000000	0.099936	2.716449	400525.588918	0.000000
2.000000	0.199788	2.716240	400475.204968	0.000000
3.000000	0.299729	2.716867	400626.356816	55.520000
4.000000	0.399800	2.716240	400475.204968	55.560000
5.000000	0.499780	2.716136	400450.012994	55.580000
6.000000	0.599764	2.716240	400475.204968	55.600000
7.000000	0.699755	2.716031	400424.821019	55.600000
8.000000	0.799713	2.715613	400324.053121	55.600000
9.000000	0.899746	2.716449	400525.588918	55.610000
10.000000	0.999798	2.716449	400525.588918	55.610000
11.000000	1.099696	2.715822	400374.437070	55.610000
12.000000	1.199781	2.716449	400525.588918	55.610000
13.000000	1.299738	2.716554	400550.780892	55.610000
14.000000	1.399890	2.716136	400450.012994	55.620000
15.000000	1.499861	2.716449	400525.588918	55.620000
16.000000	1.599891	2.716449	400525.588918	55.620000
17.000000	1.699892	2.716240	400475.204968	55.640000
18.000000	1.799833	2.716345	400500.396943	55.660000
19.000000	1.899834	2.716554	400550.780892	55.700000
20.000000	1.999873	2.716554	400550.780892	55.760000
21.000000	2.099838	2.716763	400601.164841	55.800000
22.000000	2.199812	2.716136	400450.012994	55.840000
23.000000	2.299847	2.716240	400475.204968	55.850000
24.000000	2.399782	2.716867	400626.356816	55.850000
25.000000	2.499832	2.715927	400399.629045	55.860000
26.000000	2.599827	2.716763	400601.164841	55.860000
27.000000	2.699816	2.715717	400349.245096	55.860000
28.000000	2.799783	2.716136	400450.012994	55.860000
29.000000	2.899787	2.716136	400450.012994	55.860000
30.000000	2.999799	2.716449	400525.588918	55.860000
31.000000	3.099745	2.716031	400424.821019	55.880000
32.000000	3.199785	2.716240	400475.204968	55.900000
33.000000	3.299739	2.716763	400601.164841	55.930000
34.000000	3.399747	2.715717	400349.245096	55.970000
35.000000	3.499787	2.715613	400324.053121	56.020000
36.000000	3.599776	2.716345	400500.396943	56.050000
37.000000	3.699782	2.715822	400374.437070	56.080000
38.000000	3.799750	2.716031	400424.821019	56.090000
39.000000	3.899758	2.716031	400424.821019	56.090000
40.000000	3.999696	2.716136	400450.012994	56.090000
41.000000	4.099691	2.716031	400424.821019	56.090000
42.000000	4.199743	2.716449	400525.588918	56.090000
43.000000	4.299696	2.716345	400500.396943	56.090000
44.000000	4.399721	2.716763	400601.164841	56.090000
45.000000	4.499717	2.715613	400324.053121	56.100000
46.000000	4.599579	2.715927	400399.629045	56.110000
47.000000	4.699689	2.716345	400500.396943	56.140000
48.000000	4.799657	2.716031	400424.821019	56.160000
49.000000	4.899703	2.715613	400324.053121	56.180000
50.000000	4.999680	2.716449	400525.588918	56.190000
51.000000	5.099629	2.716240	400475.204968	56.190000
52.000000	5.199673	2.715717	400349.245096	56.220000
53.000000	5.299632	2.716240	400475.204968	56.230000
54.000000	5.399667	2.714568	400072.133376	56.250000
55.000000	5.499524	2.715822	400374.437070	56.270000
56.000000	5.599653	2.716449	400525.588918	56.300000
57.000000	5.699636	2.716763	400601.164841	56.330000
58.000000	5.799639	2.716136	400450.012994	56.340000
59.000000	5.899579	2.715927	400399.629045	56.350000
60.000000	5.999612	2.716031	400424.821019	56.380000
61.000000	6.099650	2.716136	400450.012994	56.390000
62.000000	6.199549	2.714777	400122.517325	56.410000
63.000000	6.299567	2.716345	400500.396943	56.420000
64.000000	6.399613	2.715717	400349.245096	56.430000
65.000000	6.499596	2.716554	400550.780892	56.430000
66.000000	6.599590	2.715508	400298.861147	56.430000
67.000000	6.699593	2.716031	400424.821019	56.450000
68.000000	6.799558	2.717181	400701.932739	56.460000
69.000000	6.899554	2.715717	400349.245096	56.480000
70.000000	6.999525	2.716136	400450.012994	56.510000
71.000000	7.099490	2.716345	400500.396943	56.550000
72.000000	7.199548	2.716345	400500.396943	56.570000
73.000000	7.299533	2.716031	400424.821019	56.600000
74.000000	7.399531	2.716240	400475.204968	56.620000
75.000000	7.499523	2.715927	400399.629045	56.640000
76.000000	7.599502	2.716136	400450.012994	56.640000
77.000000	7.699515	2.715613	400324.053121	56.640000
78.000000	7.799528	2.716031	400424.821019	56.650000
79.000000	7.899524	2.715822	400374.437070	56.650000
80.000000	7.999508	2.716345	400500.396943	56.650000
81.000000	8.099444	2.716031	400424.821019	56.660000
82.000000	8.199456	2.716031	400424.821019	56.660000
83.000000	8.299430	2.715927	400399.629045	56.660000
84.000000	8.399469	2.716763	400601.164841	56.660000
85.000000	8.499449	2.715090	400198.093249	56.660000
86.000000	8.599452	2.716136	400450.012994	56.690000
87.000000	8.699454	2.716136	400450.012994	56.700000
88.000000	8.799484	2.715090	400198.093249	56.750000
89.000000	8.899440	2.717181	400701.932739	56.800000
90.000000	8.999441	2.715927	400399.629045	56.840000
91.000000	9.099422	2.715822	400374.437070	56.880000
92.000000	9.199431	2.716240	400475.204968	56.890000
93.000000	9.299338	2.716345	400500.396943	56.900000
94.000000	9.399427	2.715822	400374.437070	56.900000
95.000000	9.499374	2.715613	400324.053121	56.900000
96.000000	9.599409	2.715613	400324.053121	56.910000
97.000000	9.699404	2.716554	400550.780892	56.900000
98.000000	9.799333	2.716031	400424.821019	56.900000
99.000000	9.899380	2.715822	400374.437070	56.900000
100.000000	9.999356	2.715927	400399.629045	56.920000
101.000000	10.099308	2.715613	400324.053121	56.950000
102.000000	10.199267	2.715822	400374.437070	56.980000
103.000000	10.299329	2.716345	400500.396943	57.010000
104.000000	10.399355	2.716136	400450.012994	57.050000
105.000000	10.499350	2.715822	400374.437070	57.090000
106.000000	10.599273	2.715508	400298.861147	57.110000
107.000000	10.699391	2.716031	400424.821019	57.120000
108.000000	10.799342	2.715613	400324.053121	57.120000
109.000000	10.899356	2.716658	400575.972867	57.130000
110.000000	10.999309	2.716240	400475.204968	57.130000
111.000000	11.099280	2.715717	400349.245096	57.130000
112.000000	11.199286	2.715299	400248.477198	57.130000
113.000000	11.299319	2.715508	400298.861147	57.150000
114.000000	11.399322	2.716031	400424.821019	57.160000
115.000000	11.499261	2.716031	400424.821019	57.180000
116.000000	11.599294	2.716031	400424.821019	57.200000
117.000000	11.699294	2.715508	400298.861147	57.220000
118.000000	11.799259	2.715927	400399.629045	57.230000
119.000000	11.899282	2.716031	400424.821019	57.230000
120.000000	11.999264	2.716031	400424.821019	57.240000
121.000000	12.099282	2.716031	400424.821019	57.230000
122.000000	12.199259	2.716449	400525.588918	57.230000
123.000000	12.299153	2.716240	400475.204968	57.260000
124.000000	12.399259	2.715822	400374.437070	57.280000
125.000000	12.499238	2.716031	400424.821019	57.310000
126.000000	12.599228	2.716449	400525.588918	57.350000
127.000000	12.699241	2.715822	400374.437070	57.380000
128.000000	12.799230	2.715613	400324.053121	57.410000
129.000000	12.899211	2.716240	400475.204968	57.440000
130.000000	12.999174	2.716240	400475.204968	57.460000
131.000000	13.099172	2.716240	400475.204968	57.470000
132.000000	13.199135	2.716449	400525.588918	57.470000
133.000000	13.299154	2.716240	400475.204968	57.470000
134.000000	13.399191	2.715822	400374.437070	57.470000
135.000000	13.499165	2.715822	400374.437070	57.470000
136.000000	13.599136	2.716554	400550.780892	57.480000
137.000000	13.699170	2.716345	400500.396943	57.480000
138.000000	13.799197	2.717076	400676.740765	57.500000
139.000000	13.899216	2.716031	400424.821019	57.520000
140.000000	13.999152	2.715717	400349.245096	57.550000
141.000000	14.099096	2.716345	400500.396943	57.590000
142.000000	14.199110	2.716449	400525.588918	57.640000
143.000000	14.298957	2.715299	400248.477198	57.670000
144.000000	14.399114	2.716031	400424.821019	57.700000
145.000000	14.498948	2.715613	400324.053121	57.700000
146.000000	14.599116	2.715717	400349.245096	57.710000
147.000000	14.699104	2.716136	400450.012994	57.700000
148.000000	14.799122	2.716763	400601.164841	57.700000
149.000000	14.898954	2.716345	400500.396943	57.700000
150.000000	14.999023	2.715613	400324.053121	57.700000
151.000000	15.099112	2.716763	400601.164841	57.710000
152.000000	15.199055	2.716240	400475.204968	57.710000
153.000000	15.299039	2.716763	400601.164841	57.710000
154.000000	15.399024	2.716554	400550.780892	57.720000
155.000000	15.499050	2.716449	400525.588918	57.740000
156.000000	15.599017	2.716554	400550.780892	57.760000
157.000000	15.699023	2.716345	400500.396943	57.800000
158.000000	15.798914	2.715508	400298.861147	57.830000
159.000000	15.898972	2.716345	400500.396943	57.870000
160.000000	15.998958	2.715613	400324.053121	57.900000
161.000000	16.099006	2.716136	400450.012994	57.930000
162.000000	16.198995	2.716449	400525.588918	57.950000
163.000000	16.298953	2.715822	400374.437070	57.960000
164.000000	16.399007	2.716345	400500.396943	57.960000
165.000000	16.498949	2.716136	400450.012994	57.960000
166.000000	16.598948	2.715822	400374.437070	57.960000
167.000000	16.698973	2.716031	400424.821019	57.970000
168.000000	16.798792	2.716658	400575.972867	57.980000
169.000000	16.898819	2.715927	400399.629045	58.000000
170.000000	16.998855	2.715404	400273.669172	58.020000
171.000000	17.098792	2.715717	400349.245096	58.040000
172.000000	17.198811	2.715717	400349.245096	58.070000
173.000000	17.298768	2.715717	400349.245096	58.100000
174.000000	17.398776	2.715404	400273.669172	58.120000
175.000000	17.498878	2.715404	400273.669172	58.140000
176.000000	17.598918	2.715508	400298.861147	58.160000
177.000000	17.698888	2.715613	400324.053121	58.170000
178.000000	17.798883	2.715717	400349.245096	58.180000
179.000000	17.898887	2.716136	400450.012994	58.180000
180.000000	17.998851	2.716345	400500.396943	58.180000
181.000000	18.098848	2.714986	400172.901274	58.180000
182.000000	18.198833	2.715717	400349.245096	58.210000
183.000000	18.298793	2.715404	400273.669172	58.230000
184.000000	18.398845	2.715613	400324.053121	58.260000
185.000000	18.498912	2.715822	400374.437070	58.280000
186.000000	18.598817	2.715613	400324.053121	58.270000
187.000000	18.698685	2.715822	400374.437070	58.280000
188.000000	18.798876	2.716031	400424.821019	58.280000
189.000000	18.898854	2.716345	400500.396943	58.290000
190.000000	18.998859	2.715822	400374.437070	58.290000
191.000000	19.098789	2.716031	400424.821019	58.290000
192.000000	19.198746	2.715822	400374.437070	58.320000
193.000000	19.298798	2.716554	400550.780892	58.340000
194.000000	19.398750	2.715927	400399.629045	58.370000
195.000000	19.498815	2.714881	400147.709299	58.400000
196.000000	19.598765	2.715613	400324.053121	58.440000
197.000000	19.698666	2.715822	400374.437070	58.480000
198.000000	19.798791	2.716763	400601.164841	58.510000
199.000000	19.898751	2.715508	400298.861147	58.520000
200.000000	19.998720	2.715404	400273.669172	58.530000
201.000000	20.098717	2.716136	400450.012994	58.530000
202.000000	20.198743	2.715717	400349.245096	58.540000
203.000000	20.298761	2.715090	400198.093249	58.530000
204.000000	20.398751	2.716031	400424.821019	58.530000
205.000000	20.498697	2.715613	400324.053121	58.530000
206.000000	20.598737	2.715613	400324.053121	58.540000
207.000000	20.698729	2.715090	400198.093249	58.560000
208.000000	20.798755	2.715195	400223.285223	58.580000
209.000000	20.898707	2.715508	400298.861147	58.610000
210.000000	20.998716	2.715090	400198.093249	58.660000
211.000000	21.098724	2.715299	400248.477198	58.690000
212.000000	21.198709	2.715717	400349.245096	58.730000
213.000000	21.298670	2.716449	400525.588918	58.760000
214.000000	21.398693	2.715927	400399.629045	58.750000
215.000000	21.498699	2.715090	400198.093249	58.760000
216.000000	21.598701	2.715822	400374.437070	58.760000
217.000000	21.698649	2.715195	400223.285223	58.760000
218.000000	21.798679	2.715299	400248.477198	58.760000
219.000000	21.898723	2.715717	400349.245096	58.770000
220.000000	21.998685	2.715717	400349.245096	58.770000
221.000000	22.098627	2.715508	400298.861147	58.770000
222.000000	22.198672	2.715195	400223.285223	58.770000
223.000000	22.298618	2.715508	400298.861147	58.770000
224.000000	22.398648	2.715508	400298.861147	58.800000
225.000000	22.498645	2.715508	400298.861147	58.820000
226.000000	22.598599	2.715195	400223.285223	58.840000
227.000000	22.698576	2.715404	400273.669172	58.880000
228.000000	22.798615	2.715717	400349.245096	58.920000
229.000000	22.898586	2.714672	400097.325350	58.950000
230.000000	22.998614	2.715195	400223.285223	58.980000
231.000000	23.098549	2.715404	400273.669172	59.000000
232.000000	23.198612	2.716031	400424.821019	59.000000
233.000000	23.298601	2.715195	400223.285223	59.000000
234.000000	23.398586	2.715299	400248.477198	59.000000
235.000000	23.498480	2.715299	400248.477198	59.010000
236.000000	23.598589	2.715927	400399.629045	59.010000
237.000000	23.698581	2.715508	400298.861147	59.020000
238.000000	23.798514	2.716136	400450.012994	59.040000
239.000000	23.898516	2.714986	400172.901274	59.060000
240.000000	23.998554	2.715613	400324.053121	59.080000
241.000000	24.098524	2.715717	400349.245096	59.110000
242.000000	24.198524	2.715299	400248.477198	59.140000
243.000000	24.298485	2.715613	400324.053121	59.170000
244.000000	24.398488	2.715717	400349.245096	59.200000
245.000000	24.498508	2.715195	400223.285223	59.220000
246.000000	24.598505	2.715927	400399.629045	59.220000
247.000000	24.698530	2.715717	400349.245096	59.230000
248.000000	24.798505	2.714986	400172.901274	59.230000
249.000000	24.898435	2.715090	400198.093249	59.230000
250.000000	24.998519	2.715822	400374.437070	59.230000
251.000000	25.098397	2.715195	400223.285223	59.250000
252.000000	25.198475	2.715404	400273.669172	59.260000
253.000000	25.298469	2.715613	400324.053121	59.280000
254.000000	25.398450	2.714254	399996.557452	59.300000
255.000000	25.498454	2.715195	400223.285223	59.330000
256.000000	25.598466	2.715195	400223.285223	59.330000
257.000000	25.698483	2.715717	400349.245096	59.340000
258.000000	25.798483	2.715613	400324.053121	59.340000
259.000000	25.898441	2.715613	400324.053121	59.340000
260.000000	25.998449	2.716240	400475.204968	59.340000
261.000000	26.098363	2.714986	400172.901274	59.370000
262.000000	26.198397	2.715508	400298.861147	59.390000
263.000000	26.298400	2.715613	400324.053121	59.420000
264.000000	26.398414	2.714881	400147.709299	59.450000
265.000000	26.498407	2.715404	400273.669172	59.490000
266.000000	26.598385	2.715508	400298.861147	59.530000
267.000000	26.698432	2.715613	400324.053121	59.550000
268.000000	26.798363	2.715508	400298.861147	59.580000
269.000000	26.898352	2.715404	400273.669172	59.570000
270.000000	26.998364	2.715717	400349.245096	59.580000
271.000000	27.098300	2.716031	400424.821019	59.580000
272.000000	27.198353	2.715613	400324.053121	59.580000
273.000000	27.298306	2.715299	400248.477198	59.590000
274.000000	27.398309	2.714881	400147.709299	59.590000
275.000000	27.498378	2.716031	400424.821019	59.590000
276.000000	27.598299	2.715299	400248.477198	59.610000
277.000000	27.698339	2.715508	400298.861147	59.640000
278.000000	27.798337	2.715927	400399.629045	59.670000
279.000000	27.898322	2.715299	400248.477198	59.700000
280.000000	27.998273	2.716240	400475.204968	59.750000
281.000000	28.098262	2.715195	400223.285223	59.780000
282.000000	28.198113	2.715613	400324.053121	59.800000
283.000000	28.298262	2.715508	400298.861147	59.810000
284.000000	28.398281	2.715508	400298.861147	59.810000
285.000000	28.498288	2.716136	400450.012994	59.810000
286.000000	28.598211	2.716136	400450.012994	59.820000
287.000000	28.698264	2.714986	400172.901274	59.810000
288.000000	28.798264	2.715404	400273.669172	59.810000
289.000000	28.898248	2.715508	400298.861147	59.810000
290.000000	28.998242	2.715927	400399.629045	59.810000
291.000000	29.098189	2.715404	400273.669172	59.810000
292.000000	29.198225	2.714672	400097.325350	59.820000
293.000000	29.298198	2.715404	400273.669172	59.850000
294.000000	29.398208	2.715090	400198.093249	59.870000
295.000000	29.498177	2.715613	400324.053121	59.890000
296.000000	29.598227	2.715822	400374.437070	59.940000
297.000000	29.698192	2.715404	400273.669172	59.970000
298.000000	29.798172	2.715927	400399.629045	60.010000
299.000000	29.898178	2.715299	400248.477198	60.040000
300.000000	29.998198	2.715195	400223.285223	60.060000
301.000000	30.098156	2.715717	400349.245096	60.060000
302.000000	30.198166	2.715822	400374.437070	60.060000
303.000000	30.298129	2.715195	400223.285223	60.070000
304.000000	30.398141	2.715404	400273.669172	60.060000
305.000000	30.498174	2.715613	400324.053121	60.060000
306.000000	30.598166	2.715822	400374.437070	60.060000
307.000000	30.698162	2.716031	400424.821019	60.090000
308.000000	30.798143	2.714777	400122.517325	60.110000
309.000000	30.898125	2.716136	400450.012994	60.140000
310.000000	30.998114	2.716345	400500.396943	60.160000
311.000000	31.098085	2.715090	400198.093249	60.190000
312.000000	31.198170	2.715195	400223.285223	60.230000
313.000000	31.298185	2.715299	400248.477198	60.240000
314.000000	31.398132	2.715508	400298.861147	60.260000
315.000000	31.498073	2.715927	400399.629045	60.270000
316.000000	31.598089	2.716031	400424.821019	60.280000
317.000000	31.698093	2.715927	400399.629045	60.280000
318.000000	31.798087	2.714672	400097.325350	60.290000
319.000000	31.898113	2.715822	400374.437070	60.280000
320.000000	31.998109	2.715822	400374.437070	60.310000
321.000000	32.098042	2.715090	400198.093249	60.330000
322.000000	32.198081	2.715508	400298.861147	60.350000
323.000000	32.298081	2.715299	400248.477198	60.370000
324.000000	32.398105	2.715090	400198.093249	60.380000
325.000000	32.498071	2.715195	400223.285223	60.380000
326.000000	32.598011	2.715195	400223.285223	60.380000
327.000000	32.698063	2.716031	400424.821019	60.390000
328.000000	32.798057	2.715508	400298.861147	60.390000
329.000000	32.897969	2.715404	400273.669172	60.390000
330.000000	32.998038	2.715299	400248.477198	60.410000
331.000000	33.097968	2.715613	400324.053121	60.420000
332.000000	33.198016	2.715717	400349.245096	60.460000
333.000000	33.297967	2.715299	400248.477198	60.490000
334.000000	33.398008	2.715508	400298.861147	60.530000
335.000000	33.498003	2.715508	400298.861147	60.580000
336.000000	33.598004	2.715822	400374.437070	60.600000
337.000000	33.697930	2.715404	400273.669172	60.620000
338.000000	33.798000	2.715927	400399.629045	60.630000
339.000000	33.897988	2.715090	400198.093249	60.640000
340.000000	33.997992	2.715195	400223.285223	60.630000
341.000000	34.097918	2.716449	400525.588918	60.630000
342.000000	34.197978	2.715404	400273.669172	60.630000
343.000000	34.297944	2.715195	400223.285223	60.640000
344.000000	34.397943	2.715508	400298.861147	60.640000
345.000000	34.497925	2.715090	400198.093249	60.660000
346.000000	34.597911	2.715404	400273.669172	60.670000
347.000000	34.697755	2.715090	400198.093249	60.710000
348.000000	34.797696	2.714881	400147.709299	60.740000
349.000000	34.897721	2.714986	400172.901274	60.780000
350.000000	34.997889	2.715195	400223.285223	60.820000
351.000000	35.097690	2.715404	400273.669172	60.850000
352.000000	35.197837	2.715090	400198.093249	60.860000
353.000000	35.297807	2.715717	400349.245096	60.860000
354.000000	35.397803	2.715927	400399.629045	60.870000
355.000000	35.497847	2.714568	400072.133376	60.870000
356.000000	35.597863	2.714672	400097.325350	60.870000
357.000000	35.697885	2.715299	400248.477198	60.870000
358.000000	35.797712	2.715508	400298.861147	60.880000
359.000000	35.897843	2.715404	400273.669172	60.880000
360.000000	35.997755	2.715090	400198.093249	60.870000
361.000000	36.097699	2.714881	400147.709299	60.870000
362.000000	36.197657	2.715508	400298.861147	60.890000
363.000000	36.297640	2.715299	400248.477198	60.920000
364.000000	36.397671	2.714568	400072.133376	60.940000
365.000000	36.497775	2.714672	400097.325350	60.980000
366.000000	36.597754	2.714777	400122.517325	61.010000
367.000000	36.697778	2.715195	400223.285223	61.060000
368.000000	36.797769	2.715404	400273.669172	61.090000
369.000000	36.897792	2.715090	400198.093249	61.110000
370.000000	36.997760	2.715090	400198.093249	61.120000
371.000000	37.097718	2.715822	400374.437070	61.120000
372.000000	37.197593	2.714881	400147.709299	61.120000
373.000000	37.297711	2.715090	400198.093249	61.120000
374.000000	37.397801	2.714777	400122.517325	61.120000
375.000000	37.497762	2.714986	400172.901274	61.130000
376.000000	37.597737	2.715090	400198.093249	61.130000
377.000000	37.697765	2.715508	400298.861147	61.160000
378.000000	37.797754	2.714150	399971.365478	61.180000
379.000000	37.897743	2.715613	400324.053121	61.200000
380.000000	37.997698	2.715822	400374.437070	61.240000
381.000000	38.097693	2.714150	399971.365478	61.260000
382.000000	38.197722	2.714672	400097.325350	61.290000
383.000000	38.297723	2.714777	400122.517325	61.320000
384.000000	38.397715	2.714254	399996.557452	61.320000
385.000000	38.497710	2.714986	400172.901274	61.320000
386.000000	38.597718	2.715299	400248.477198	61.320000
387.000000	38.697705	2.714881	400147.709299	61.330000
388.000000	38.797691	2.714881	400147.709299	61.330000
389.000000	38.897680	2.714986	400172.901274	61.340000
390.000000	38.997684	2.713941	399920.981529	61.360000
391.000000	39.097596	2.714986	400172.901274	61.390000
392.000000	39.197612	2.715090	400198.093249	61.410000
393.000000	39.297615	2.715613	400324.053121	61.430000
394.000000	39.397639	2.714881	400147.709299	61.440000
395.000000	39.497637	2.715195	400223.285223	61.450000
396.000000	39.597650	2.714881	400147.709299	61.450000
397.000000	39.697643	2.714672	400097.325350	61.450000
398.000000	39.797634	2.714359	400021.749427	61.450000
399.000000	39.897630	2.714986	400172.901274	61.460000
400.000000	39.997629	2.714986	400172.901274	61.480000
401.000000	40.097564	2.714672	400097.325350	61.500000
402.000000	40.197600	2.714777	400122.517325	61.530000
403.000000	40.297625	2.715195	400223.285223	61.570000
404.000000	40.397615	2.714777	400122.517325	61.610000
405.000000	40.497588	2.714986	400172.901274	61.640000
406.000000	40.597581	2.714672	400097.325350	61.670000
407.000000	40.697577	2.714881	400147.709299	61.680000
408.000000	40.797556	2.714881	400147.709299	61.690000
409.000000	40.897589	2.714254	399996.557452	61.690000
410.000000	40.997426	2.715195	400223.285223	61.690000
411.000000	41.097486	2.715404	400273.669172	61.690000
412.000000	41.197541	2.714986	400172.901274	61.690000
413.000000	41.297539	2.715090	400198.093249	61.700000
414.000000	41.397494	2.714881	400147.709299	61.700000
415.000000	41.497326	2.715090	400198.093249	61.720000
416.000000	41.597487	2.714568	400072.133376	61.740000
417.000000	41.697526	2.714463	400046.941401	61.770000
418.000000	41.797485	2.714986	400172.901274	61.810000
419.000000	41.897449	2.715717	400349.245096	61.860000
420.000000	41.997511	2.714672	400097.325350	61.880000
421.000000	42.097434	2.714568	400072.133376	61.910000
422.000000	42.197500	2.714777	400122.517325	61.910000
423.000000	42.297454	2.714672	400097.325350	61.910000
424.000000	42.397476	2.715195	400223.285223	61.920000
425.000000	42.497413	2.715299	400248.477198	61.920000
426.000000	42.597460	2.714672	400097.325350	61.920000
427.000000	42.697450	2.714881	400147.709299	61.920000
428.000000	42.797447	2.714881	400147.709299	61.920000
429.000000	42.897447	2.714463	400046.941401	61.920000
430.000000	42.997414	2.714568	400072.133376	61.920000
431.000000	43.097389	2.714881	400147.709299	61.930000
432.000000	43.197381	2.715090	400198.093249	61.940000
433.000000	43.297420	2.715090	400198.093249	61.960000
434.000000	43.397409	2.715613	400324.053121	62.000000
435.000000	43.497410	2.714986	400172.901274	62.040000
436.000000	43.597386	2.714881	400147.709299	62.080000
437.000000	43.697430	2.714254	399996.557452	62.120000
438.000000	43.797407	2.715613	400324.053121	62.150000
439.000000	43.897396	2.715299	400248.477198	62.150000
440.000000	43.997403	2.715195	400223.285223	62.160000
441.000000	44.097335	2.715090	400198.093249	62.160000
442.000000	44.197391	2.715508	400298.861147	62.160000
443.000000	44.297377	2.714986	400172.901274	62.170000
444.000000	44.397369	2.715299	400248.477198	62.170000
445.000000	44.497354	2.715404	400273.669172	62.170000
446.000000	44.597350	2.715927	400399.629045	62.200000
447.000000	44.697285	2.715090	400198.093249	62.220000
448.000000	44.797332	2.715299	400248.477198	62.240000
449.000000	44.897326	2.715613	400324.053121	62.280000
450.000000	44.997312	2.715508	400298.861147	62.310000
451.000000	45.097249	2.714986	400172.901274	62.350000
452.000000	45.197296	2.715404	400273.669172	62.370000
453.000000	45.297091	2.715717	400349.245096	62.390000
454.000000	45.397299	2.715195	400223.285223	62.390000
455.000000	45.497267	2.714568	400072.133376	62.400000
456.000000	45.597252	2.715299	400248.477198	62.400000
457.000000	45.697297	2.715717	400349.245096	62.400000
458.000000	45.797205	2.715508	400298.861147	62.400000
459.000000	45.897281	2.714568	400072.133376	62.400000
460.000000	45.997268	2.715299	400248.477198	62.430000
461.000000	46.097189	2.714568	400072.133376	62.440000
462.000000	46.197089	2.714777	400122.517325	62.460000
463.000000	46.297261	2.714463	400046.941401	62.490000
464.000000	46.397219	2.715195	400223.285223	62.490000
465.000000	46.497218	2.715404	400273.669172	62.500000
466.000000	46.597194	2.714881	400147.709299	62.490000
467.000000	46.697213	2.715090	400198.093249	62.490000
468.000000	46.797227	2.715195	400223.285223	62.500000
469.000000	46.897124	2.714777	400122.517325	62.530000
470.000000	46.997166	2.714881	400147.709299	62.540000
471.000000	47.097109	2.715404	400273.669172	62.570000
472.000000	47.197175	2.715090	400198.093249	62.600000
473.000000	47.297211	2.715404	400273.669172	62.640000
474.000000	47.397135	2.714777	400122.517325	62.670000
475.000000	47.497186	2.715613	400324.053121	62.710000
476.000000	47.597122	2.714986	400172.901274	62.730000
477.000000	47.697123	2.714463	400046.941401	62.740000
478.000000	47.797168	2.715090	400198.093249	62.740000
479.000000	47.897103	2.715717	400349.245096	62.750000
480.000000	47.997105	2.715717	400349.245096	62.750000
481.000000	48.097051	2.715508	400298.861147	62.750000
482.000000	48.197094	2.715299	400248.477198	62.750000
483.000000	48.297044	2.715090	400198.093249	62.760000
484.000000	48.397086	2.714672	400097.325350	62.780000
485.000000	48.497046	2.715299	400248.477198	62.790000
486.000000	48.597071	2.715717	400349.245096	62.820000
487.000000	48.697107	2.714777	400122.517325	62.850000
488.000000	48.797080	2.715090	400198.093249	62.880000
489.000000	48.897068	2.714150	399971.365478	62.920000
490.000000	48.996902	2.715299	400248.477198	62.950000
491.000000	49.096980	2.715195	400223.285223	62.960000
492.000000	49.197052	2.714359	400021.749427	62.970000
493.000000	49.297036	2.714359	400021.749427	62.970000
494.000000	49.397030	2.714568	400072.133376	62.980000
495.000000	49.497002	2.714463	400046.941401	62.980000
496.000000	49.596998	2.714881	400147.709299	62.980000
497.000000	49.697052	2.715195	400223.285223	62.980000
498.000000	49.797013	2.714254	399996.557452	62.980000
499.000000	49.897047	2.714254	399996.557452	62.990000
500.000000	49.996932	2.714568	400072.133376	62.990000
501.000000	50.096925	2.714986	400172.901274	63.000000
502.000000	50.196922	2.714672	400097.325350	63.020000
503.000000	50.296964	2.715299	400248.477198	63.040000
504.000000	50.396967	2.715613	400324.053121	63.080000
505.000000	50.496839	2.714777	400122.517325	63.120000
506.000000	50.596897	2.714568	400072.133376	63.160000
507.000000	50.696995	2.714045	399946.173503	63.200000
508.000000	50.796856	2.715822	400374.437070	63.220000
509.000000	50.896912	2.714986	400172.901274	63.230000
510.000000	50.996990	2.714777	400122.517325	63.230000
511.000000	51.096876	2.714777	400122.517325	63.230000
512.000000	51.196908	2.714150	399971.365478	63.230000
513.000000	51.296926	2.715195	400223.285223	63.230000
514.000000	51.396904	2.714359	400021.749427	63.240000
515.000000	51.496896	2.714881	400147.709299	63.250000
516.000000	51.596887	2.714359	400021.749427	63.260000
517.000000	51.696890	2.714463	400046.941401	63.280000
518.000000	51.796893	2.714672	400097.325350	63.320000
519.000000	51.896864	2.714045	399946.173503	63.340000
520.000000	51.996903	2.714777	400122.517325	63.380000
521.000000	52.096798	2.714150	399971.365478	63.420000
522.000000	52.196874	2.714881	400147.709299	63.440000
523.000000	52.296782	2.714359	400021.749427	63.450000
524.000000	52.396802	2.714254	399996.557452	63.450000
525.000000	52.496877	2.714881	400147.709299	63.460000
526.000000	52.596838	2.714672	400097.325350	63.460000
527.000000	52.696807	2.713836	399895.789554	63.460000
528.000000	52.796810	2.714254	399996.557452	63.460000
529.000000	52.896826	2.714777	400122.517325	63.460000
530.000000	52.996811	2.714254	399996.557452	63.480000
531.000000	53.096746	2.714463	400046.941401	63.510000
532.000000	53.196785	2.714045	399946.173503	63.530000
533.000000	53.296761	2.714568	400072.133376	63.550000
534.000000	53.396752	2.714672	400097.325350	63.560000
535.000000	53.496689	2.715090	400198.093249	63.560000
536.000000	53.596722	2.714150	399971.365478	63.560000
537.000000	53.696652	2.715090	400198.093249	63.570000
538.000000	53.796611	2.714463	400046.941401	63.570000
539.000000	53.896663	2.714986	400172.901274	63.600000
540.000000	53.996693	2.714150	399971.365478	63.620000
541.000000	54.096622	2.714777	400122.517325	63.650000
542.000000	54.196727	2.714672	400097.325350	63.680000
543.000000	54.296708	2.714777	400122.517325	63.720000
544.000000	54.396719	2.714359	400021.749427	63.750000
545.000000	54.496722	2.714254	399996.557452	63.770000
546.000000	54.596622	2.714463	400046.941401	63.790000
547.000000	54.696703	2.715090	400198.093249	63.820000
548.000000	54.796515	2.714463	400046.941401	63.810000
549.000000	54.896521	2.714463	400046.941401	63.820000
550.000000	54.996570	2.714359	400021.749427	63.820000
551.000000	55.096545	2.714359	400021.749427	63.820000
552.000000	55.196542	2.714045	399946.173503	63.820000
553.000000	55.296463	2.714463	400046.941401	63.820000
554.000000	55.396482	2.713941	399920.981529	63.840000
555.000000	55.496625	2.714672	400097.325350	63.860000
556.000000	55.596635	2.714254	399996.557452	63.890000
557.000000	55.696641	2.714777	400122.517325	63.920000
558.000000	55.796604	2.714672	400097.325350	63.950000
559.000000	55.896597	2.714254	399996.557452	63.990000
560.000000	55.996616	2.714150	399971.365478	64.020000
561.000000	56.096613	2.714777	400122.517325	64.050000
562.000000	56.196609	2.714672	400097.325350	64.040000
563.000000	56.296608	2.713523	399820.213631	64.040000
564.000000	56.396562	2.714254	399996.557452	64.050000
565.000000	56.496589	2.713941	399920.981529	64.050000
566.000000	56.596591	2.714150	399971.365478	64.050000
567.000000	56.696545	2.714254	399996.557452	64.050000
568.000000	56.796585	2.713836	399895.789554	64.050000
569.000000	56.896563	2.714463	400046.941401	64.050000
570.000000	56.996589	2.714045	399946.173503	64.060000
571.000000	57.096511	2.714672	400097.325350	64.060000
572.000000	57.196575	2.714777	400122.517325	64.090000
573.000000	57.296535	2.714777	400122.517325	64.120000
574.000000	57.396563	2.714881	400147.709299	64.160000
575.000000	57.496535	2.714881	400147.709299	64.200000
576.000000	57.596529	2.713941	399920.981529	64.240000
577.000000	57.696492	2.714672	400097.325350	64.280000
578.000000	57.796514	2.714254	399996.557452	64.280000
579.000000	57.896533	2.714672	400097.325350	64.290000
580.000000	57.996501	2.714463	400046.941401	64.290000
581.000000	58.096456	2.714568	400072.133376	64.290000
582.000000	58.196466	2.714672	400097.325350	64.300000
583.000000	58.296427	2.714881	400147.709299	64.300000
584.000000	58.396472	2.714150	399971.365478	64.300000
585.000000	58.496452	2.714881	400147.709299	64.300000
586.000000	58.596475	2.714672	400097.325350	64.330000
587.000000	58.696457	2.714568	400072.133376	64.350000
588.000000	58.796469	2.714881	400147.709299	64.380000
589.000000	58.896415	2.714986	400172.901274	64.420000
590.000000	58.996376	2.714777	400122.517325	64.460000
591.000000	59.096390	2.714568	400072.133376	64.480000
592.000000	59.196434	2.715090	400198.093249	64.510000
593.000000	59.296458	2.714359	400021.749427	64.510000
594.000000	59.396417	2.714881	400147.709299	64.510000
595.000000	59.496364	2.714254	399996.557452	64.520000
596.000000	59.596408	2.714986	400172.901274	64.520000
597.000000	59.696413	2.715090	400198.093249	64.520000
598.000000	59.796407	2.714568	400072.133376	64.520000
599.000000	59.896348	2.714150	399971.365478	64.530000
600.000000	59.996384	2.714359	400021.749427	64.550000
601.000000	60.096326	2.714881	400147.709299	64.570000
602.000000	60.196380	2.715404	400273.669172	64.590000
603.000000	60.296335	2.715195	400223.285223	64.610000
604.000000	60.396384	2.714777	400122.517325	64.620000
605.000000	60.496352	2.714568	400072.133376	64.620000
606.000000	60.596329	2.714568	400072.133376	64.630000
607.000000	60.696320	2.714254	399996.557452	64.620000
608.000000	60.796344	2.714463	400046.941401	64.660000
609.000000	60.896350	2.714254	399996.557452	64.670000
610.000000	60.996338	2.714777	400122.517325	64.690000
611.000000	61.096274	2.714777	400122.517325	64.720000
612.000000	61.196325	2.715299	400248.477198	64.760000
613.000000	61.296343	2.714777	400122.517325	64.790000
614.000000	61.396317	2.714881	400147.709299	64.810000
615.000000	61.496280	2.714881	400147.709299	64.830000
616.000000	61.596293	2.715717	400349.245096	64.850000
617.000000	61.696286	2.714986	400172.901274	64.860000
618.000000	61.796289	2.714777	400122.517325	64.870000
619.000000	61.896244	2.714672	400097.325350	64.870000
620.000000	61.996272	2.714568	400072.133376	64.880000
621.000000	62.096217	2.714986	400172.901274	64.880000
622.000000	62.196263	2.714359	400021.749427	64.880000
623.000000	62.296188	2.714777	400122.517325	64.880000
624.000000	62.396261	2.714672	400097.325350	64.910000
625.000000	62.496239	2.714045	399946.173503	64.930000
626.000000	62.596294	2.714881	400147.709299	64.960000
627.000000	62.696242	2.715508	400298.861147	65.000000
628.000000	62.796239	2.714150	399971.365478	65.030000
629.000000	62.896214	2.714254	399996.557452	65.070000
630.000000	62.996229	2.714568	400072.133376	65.090000
631.000000	63.096189	2.714150	399971.365478	65.100000
632.000000	63.196181	2.714568	400072.133376	65.110000
633.000000	63.296119	2.714777	400122.517325	65.110000
634.000000	63.396134	2.714150	399971.365478	65.120000
635.000000	63.496185	2.713941	399920.981529	65.120000
636.000000	63.596184	2.714986	400172.901274	65.120000
637.000000	63.696161	2.714463	400046.941401	65.120000
638.000000	63.796011	2.714986	400172.901274	65.120000
639.000000	63.896166	2.714150	399971.365478	65.120000
640.000000	63.996007	2.714359	400021.749427	65.120000
641.000000	64.096085	2.714672	400097.325350	65.120000
642.000000	64.196118	2.714045	399946.173503	65.140000
643.000000	64.296121	2.714463	400046.941401	65.160000
644.000000	64.396165	2.714881	400147.709299	65.200000
645.000000	64.496136	2.713836	399895.789554	65.240000
646.000000	64.596105	2.714150	399971.365478	65.290000
647.000000	64.696055	2.714881	400147.709299	65.330000
648.000000	64.796116	2.714254	399996.557452	65.360000
649.000000	64.896089	2.714045	399946.173503	65.360000
650.000000	64.996087	2.714463	400046.941401	65.360000
651.000000	65.096030	2.714359	400021.749427	65.370000
652.000000	65.196077	2.714881	400147.709299	65.370000
653.000000	65.295894	2.714254	399996.557452	65.370000
654.000000	65.396023	2.713941	399920.981529	65.370000
655.000000	65.496073	2.714254	399996.557452	65.370000
656.000000	65.596046	2.714045	399946.173503	65.380000
657.000000	65.696056	2.713836	399895.789554	65.400000
658.000000	65.796050	2.714150	399971.365478	65.420000
659.000000	65.896038	2.714150	399971.365478	65.460000
660.000000	65.996047	2.714045	399946.173503	65.500000
661.000000	66.095996	2.714568	400072.133376	65.540000
662.000000	66.196035	2.714881	400147.709299	65.570000
663.000000	66.295943	2.714463	400046.941401	65.580000
664.000000	66.396005	2.713836	399895.789554	65.590000
665.000000	66.495867	2.714254	399996.557452	65.590000
666.000000	66.595968	2.713523	399820.213631	65.590000
667.000000	66.695831	2.713209	399744.637707	65.590000
668.000000	66.795972	2.714045	399946.173503	65.600000
669.000000	66.895992	2.714150	399971.365478	65.590000
670.000000	66.995958	2.714045	399946.173503	65.610000
671.000000	67.095854	2.714254	399996.557452	65.620000
672.000000	67.195976	2.714150	399971.365478	65.640000
673.000000	67.295784	2.714150	399971.365478	65.660000
674.000000	67.395928	2.714045	399946.173503	65.680000
675.000000	67.495936	2.713836	399895.789554	65.710000
676.000000	67.595927	2.713836	399895.789554	65.710000
677.000000	67.695975	2.714881	400147.709299	65.720000
678.000000	67.795894	2.713627	399845.405605	65.710000
679.000000	67.895891	2.713732	399870.597580	65.740000
680.000000	67.995899	2.713836	399895.789554	65.760000
681.000000	68.095851	2.714045	399946.173503	65.780000
682.000000	68.195921	2.714150	399971.365478	65.810000
683.000000	68.295885	2.713523	399820.213631	65.840000
684.000000	68.395873	2.714254	399996.557452	65.860000
685.000000	68.495735	2.714359	400021.749427	65.880000
686.000000	68.595853	2.714045	399946.173503	65.900000
687.000000	68.695855	2.713836	399895.789554	65.920000
688.000000	68.795859	2.714463	400046.941401	65.940000
689.000000	68.895806	2.714463	400046.941401	65.960000
690.000000	68.995821	2.714254	399996.557452	65.960000
691.000000	69.095746	2.713732	399870.597580	65.960000
692.000000	69.195833	2.713418	399795.021656	65.970000
693.000000	69.295794	2.713732	399870.597580	65.970000
694.000000	69.395759	2.714463	400046.941401	65.990000
695.000000	69.495863	2.713732	399870.597580	66.010000
696.000000	69.595824	2.714150	399971.365478	66.030000
697.000000	69.695816	2.713418	399795.021656	66.050000
698.000000	69.795806	2.713627	399845.405605	66.080000
699.000000	69.895772	2.713418	399795.021656	66.100000
700.000000	69.995745	2.714045	399946.173503	66.120000
701.000000	70.095734	2.714463	400046.941401	66.140000
702.000000	70.195777	2.713523	399820.213631	66.170000
703.000000	70.295783	2.713627	399845.405605	66.180000
704.000000	70.395763	2.713941	399920.981529	66.190000
705.000000	70.495764	2.714254	399996.557452	66.200000
706.000000	70.595719	2.713941	399920.981529	66.200000
707.000000	70.695693	2.713732	399870.597580	66.200000
708.000000	70.795756	2.713836	399895.789554	66.200000
709.000000	70.895734	2.712896	399669.061783	66.200000
710.000000	70.995729	2.713627	399845.405605	66.200000
711.000000	71.095719	2.713523	399820.213631	66.200000
712.000000	71.195661	2.714463	400046.941401	66.200000
713.000000	71.295556	2.714150	399971.365478	66.210000
714.000000	71.395672	2.713523	399820.213631	66.230000
715.000000	71.495667	2.713732	399870.597580	66.260000
716.000000	71.595623	2.713732	399870.597580	66.320000
717.000000	71.695688	2.714463	400046.941401	66.370000
718.000000	71.795707	2.713418	399795.021656	66.420000
719.000000	71.895696	2.713209	399744.637707	66.450000
720.000000	71.995644	2.714045	399946.173503	66.450000
721.000000	72.095605	2.714045	399946.173503	66.450000
722.000000	72.195617	2.713941	399920.981529	66.450000
723.000000	72.295564	2.714150	399971.365478	66.450000
724.000000	72.395522	2.713523	399820.213631	66.450000
725.000000	72.495577	2.714150	399971.365478	66.450000
726.000000	72.595594	2.713314	399769.829681	66.460000
727.000000	72.695583	2.713836	399895.789554	66.460000
728.000000	72.795436	2.713732	399870.597580	66.460000
729.000000	72.895570	2.713941	399920.981529	66.490000
730.000000	72.995572	2.714359	400021.749427	66.530000
731.000000	73.095666	2.714045	399946.173503	66.570000
732.000000	73.195476	2.713836	399895.789554	66.620000
733.000000	73.295523	2.714150	399971.365478	66.660000
734.000000	73.395576	2.713732	399870.597580	66.670000
735.000000	73.495523	2.713627	399845.405605	66.680000
736.000000	73.595523	2.714045	399946.173503	66.670000
737.000000	73.695549	2.713732	399870.597580	66.670000
738.000000	73.795435	2.713732	399870.597580	66.670000
739.000000	73.895386	2.713941	399920.981529	66.680000
740.000000	73.995421	2.713941	399920.981529	66.680000
741.000000	74.095395	2.714045	399946.173503	66.680000
742.000000	74.195391	2.714568	400072.133376	66.680000
743.000000	74.295392	2.714672	400097.325350	66.700000
744.000000	74.395349	2.714359	400021.749427	66.720000
745.000000	74.495427	2.713418	399795.021656	66.740000
746.000000	74.595472	2.713732	399870.597580	66.760000
747.000000	74.695472	2.713836	399895.789554	66.790000
748.000000	74.795473	2.713732	399870.597580	66.790000
749.000000	74.895495	2.714254	399996.557452	66.820000
750.000000	74.995490	2.714045	399946.173503	66.850000
751.000000	75.095433	2.714359	400021.749427	66.870000
752.000000	75.195475	2.714359	400021.749427	66.900000
753.000000	75.295326	2.713627	399845.405605	66.920000
754.000000	75.395439	2.713941	399920.981529	66.930000
755.000000	75.495393	2.714150	399971.365478	66.930000
756.000000	75.595455	2.713209	399744.637707	66.930000
757.000000	75.695412	2.714359	400021.749427	66.930000
758.000000	75.795429	2.714254	399996.557452	66.970000
759.000000	75.895399	2.714254	399996.557452	66.980000
760.000000	75.995425	2.714045	399946.173503	66.990000
761.000000	76.095348	2.713836	399895.789554	67.020000
762.000000	76.195387	2.713941	399920.981529	67.040000
763.000000	76.295423	2.714359	400021.749427	67.040000
764.000000	76.395363	2.713836	399895.789554	67.060000
765.000000	76.495400	2.713941	399920.981529	67.080000
766.000000	76.595365	2.714568	400072.133376	67.110000
767.000000	76.695367	2.714359	400021.749427	67.130000
768.000000	76.795395	2.713836	399895.789554	67.150000
769.000000	76.895388	2.713941	399920.981529	67.160000
770.000000	76.995376	2.713941	399920.981529	67.160000
771.000000	77.095307	2.713941	399920.981529	67.170000
772.000000	77.195393	2.714881	400147.709299	67.190000
773.000000	77.295343	2.714568	400072.133376	67.210000
774.000000	77.395353	2.714672	400097.325350	67.230000
775.000000	77.495207	2.714672	400097.325350	67.250000
776.000000	77.595338	2.714568	400072.133376	67.260000
777.000000	77.695271	2.714672	400097.325350	67.260000
778.000000	77.795337	2.713836	399895.789554	67.270000
779.000000	77.895318	2.713836	399895.789554	67.270000
780.000000	77.995326	2.714672	400097.325350	67.270000
781.000000	78.095350	2.714359	400021.749427	67.270000
782.000000	78.195318	2.714672	400097.325350	67.280000
783.000000	78.295224	2.713941	399920.981529	67.280000
784.000000	78.395284	2.714254	399996.557452	67.300000
785.000000	78.495280	2.714881	400147.709299	67.320000
786.000000	78.595239	2.715404	400273.669172	67.370000
787.000000	78.695285	2.713627	399845.405605	67.420000
788.000000	78.795201	2.713732	399870.597580	67.460000
789.000000	78.895221	2.713627	399845.405605	67.500000
790.000000	78.995222	2.715090	400198.093249	67.530000
791.000000	79.095180	2.714045	399946.173503	67.530000
792.000000	79.195238	2.714150	399971.365478	67.530000
793.000000	79.295193	2.714777	400122.517325	67.530000
794.000000	79.395208	2.714672	400097.325350	67.530000
795.000000	79.495200	2.714986	400172.901274	67.540000
796.000000	79.595223	2.714463	400046.941401	67.540000
797.000000	79.695189	2.713941	399920.981529	67.540000
798.000000	79.795185	2.714150	399971.365478	67.540000
799.000000	79.895191	2.714045	399946.173503	67.540000
800.000000	79.995194	2.714986	400172.901274	67.570000
801.000000	80.095183	2.713941	399920.981529	67.600000
802.000000	80.195178	2.714672	400097.325350	67.650000
803.000000	80.295163	2.714150	399971.365478	67.690000
804.000000	80.395162	2.713627	399845.405605	67.730000
805.000000	80.495182	2.714150	399971.365478	67.760000
806.000000	80.595115	2.714359	400021.749427	67.770000
807.000000	80.695117	2.714568	400072.133376	67.770000
808.000000	80.795117	2.714672	400097.325350	67.770000
809.000000	80.895149	2.714254	399996.557452	67.770000
810.000000	80.995169	2.714568	400072.133376	67.770000
811.000000	81.095085	2.713523	399820.213631	67.770000
812.000000	81.195121	2.714359	400021.749427	67.770000
813.000000	81.295041	2.713627	399845.405605	67.770000
814.000000	81.395123	2.714359	400021.749427	67.770000
815.000000	81.495093	2.713836	399895.789554	67.780000
816.000000	81.595059	2.714463	400046.941401	67.800000
817.000000	81.695114	2.713418	399795.021656	67.820000
818.000000	81.795043	2.713836	399895.789554	67.850000
819.000000	81.895095	2.713523	399820.213631	67.880000
820.000000	81.995037	2.713941	399920.981529	67.910000
821.000000	82.095004	2.713836	399895.789554	67.950000
822.000000	82.194983	2.714150	399971.365478	67.980000
823.000000	82.295011	2.714045	399946.173503	68.000000
824.000000	82.395049	2.714254	399996.557452	68.010000
825.000000	82.495001	2.713836	399895.789554	68.010000
826.000000	82.595012	2.714254	399996.557452	68.010000
827.000000	82.695026	2.713105	399719.445732	68.020000
828.000000	82.795011	2.713418	399795.021656	68.020000
829.000000	82.894937	2.713627	399845.405605	68.020000
830.000000	82.995000	2.713523	399820.213631	68.050000
831.000000	83.094878	2.714463	400046.941401	68.060000
832.000000	83.195009	2.713314	399769.829681	68.090000
833.000000	83.294980	2.713627	399845.405605	68.110000
834.000000	83.394952	2.713941	399920.981529	68.140000
835.000000	83.495025	2.713209	399744.637707	68.160000
836.000000	83.594963	2.713941	399920.981529	68.190000
837.000000	83.694936	2.712791	399643.869809	68.210000
838.000000	83.794983	2.713836	399895.789554	68.230000
839.000000	83.894952	2.713732	399870.597580	68.240000
840.000000	83.994925	2.713836	399895.789554	68.240000
841.000000	84.094945	2.714150	399971.365478	68.250000
842.000000	84.194933	2.713836	399895.789554	68.250000
843.000000	84.294892	2.715195	400223.285223	68.250000
844.000000	84.394926	2.713523	399820.213631	68.280000
845.000000	84.494934	2.713418	399795.021656	68.280000
846.000000	84.594930	2.714045	399946.173503	68.310000
847.000000	84.694905	2.713523	399820.213631	68.320000
848.000000	84.794904	2.713418	399795.021656	68.350000
849.000000	84.894894	2.713209	399744.637707	68.360000
850.000000	84.994912	2.713627	399845.405605	68.360000
851.000000	85.094835	2.713836	399895.789554	68.370000
852.000000	85.194879	2.713418	399795.021656	68.370000
853.000000	85.294703	2.713523	399820.213631	68.370000
854.000000	85.394806	2.713418	399795.021656	68.390000
855.000000	85.494832	2.713418	399795.021656	68.410000
856.000000	85.594872	2.713418	399795.021656	68.430000
857.000000	85.694833	2.713523	399820.213631	68.460000
858.000000	85.794800	2.713523	399820.213631	68.490000
859.000000	85.894855	2.713209	399744.637707	68.530000
860.000000	85.994816	2.713523	399820.213631	68.550000
861.000000	86.094767	2.713000	399694.253758	68.580000
862.000000	86.194810	2.713000	399694.253758	68.600000
863.000000	86.294814	2.714359	400021.749427	68.610000
864.000000	86.394826	2.713105	399719.445732	68.610000
865.000000	86.494755	2.713209	399744.637707	68.620000
866.000000	86.594774	2.713105	399719.445732	68.620000
867.000000	86.694748	2.713314	399769.829681	68.620000
868.000000	86.794770	2.713836	399895.789554	68.620000
869.000000	86.894754	2.713105	399719.445732	68.620000
870.000000	86.994789	2.714150	399971.365478	68.650000
871.000000	87.094712	2.714045	399946.173503	68.670000
872.000000	87.194762	2.713523	399820.213631	68.700000
873.000000	87.294715	2.713523	399820.213631	68.740000
874.000000	87.394760	2.714045	399946.173503	68.770000
875.000000	87.494756	2.713836	399895.789554	68.800000
876.000000	87.594680	2.713418	399795.021656	68.820000
877.000000	87.694748	2.714150	399971.365478	68.850000
878.000000	87.794775	2.713836	399895.789554	68.850000
879.000000	87.894678	2.713105	399719.445732	68.860000
880.000000	87.994722	2.713836	399895.789554	68.860000
881.000000	88.094644	2.713000	399694.253758	68.860000
882.000000	88.194661	2.713418	399795.021656	68.860000
883.000000	88.294655	2.712791	399643.869809	68.870000
884.000000	88.394681	2.713836	399895.789554	68.870000
885.000000	88.494659	2.713627	399845.405605	68.870000
886.000000	88.594669	2.713418	399795.021656	68.870000
887.000000	88.694608	2.713523	399820.213631	68.870000
888.000000	88.794667	2.713627	399845.405605	68.880000
889.000000	88.894673	2.713418	399795.021656	68.910000
890.000000	88.994651	2.713418	399795.021656	68.950000
891.000000	89.094595	2.713105	399719.445732	69.000000
892.000000	89.194697	2.713836	399895.789554	69.050000
893.000000	89.294652	2.713314	399769.829681	69.100000
894.000000	89.394642	2.714359	400021.749427	69.090000
895.000000	89.494630	2.713836	399895.789554	69.100000
896.000000	89.594620	2.713314	399769.829681	69.100000
897.000000	89.694670	2.713627	399845.405605	69.100000
898.000000	89.794538	2.713314	399769.829681	69.110000
899.000000	89.894627	2.714150	399971.365478	69.110000
900.000000	89.994558	2.713105	399719.445732	69.110000
901.000000	90.094526	2.713418	399795.021656	69.110000
902.000000	90.194590	2.714777	400122.517325	69.110000
903.000000	90.294534	2.713836	399895.789554	69.150000
904.000000	90.394589	2.713732	399870.597580	69.160000
905.000000	90.494555	2.713836	399895.789554	69.200000
906.000000	90.594543	2.712791	399643.869809	69.240000
907.000000	90.694553	2.713836	399895.789554	69.290000
908.000000	90.794500	2.713732	399870.597580	69.330000
909.000000	90.894514	2.713523	399820.213631	69.360000
910.000000	90.994528	2.713523	399820.213631	69.360000
911.000000	91.094454	2.713000	399694.253758	69.360000
912.000000	91.194421	2.713836	399895.789554	69.360000
913.000000	91.294496	2.713314	399769.829681	69.360000
914.000000	91.394487	2.713836	399895.789554	69.360000
915.000000	91.494446	2.714150	399971.365478	69.360000
916.000000	91.594340	2.713941	399920.981529	69.370000
917.000000	91.694385	2.713314	399769.829681	69.370000
918.000000	91.794298	2.714045	399946.173503	69.370000
919.000000	91.894452	2.713732	399870.597580	69.390000
920.000000	91.994433	2.713523	399820.213631	69.410000
921.000000	92.094458	2.713836	399895.789554	69.440000
922.000000	92.194457	2.714150	399971.365478	69.470000
923.000000	92.294322	2.713418	399795.021656	69.460000
924.000000	92.394269	2.714463	400046.941401	69.500000
925.000000	92.494367	2.714254	399996.557452	69.510000
926.000000	92.594384	2.714463	400046.941401	69.540000
927.000000	92.694409	2.713836	399895.789554	69.560000
928.000000	92.794307	2.713732	399870.597580	69.590000
929.000000	92.894393	2.713418	399795.021656	69.590000
930.000000	92.994275	2.714672	400097.325350	69.590000
931.000000	93.094216	2.713418	399795.021656	69.600000
932.000000	93.194209	2.714150	399971.365478	69.600000
933.000000	93.294197	2.713836	399895.789554	69.640000
934.000000	93.394227	2.713627	399845.405605	69.650000
935.000000	93.494284	2.714150	399971.365478	69.680000
936.000000	93.594326	2.713836	399895.789554	69.700000
937.000000	93.694384	2.713941	399920.981529	69.720000
938.000000	93.794323	2.714045	399946.173503	69.730000
939.000000	93.894305	2.713523	399820.213631	69.750000
940.000000	93.994327	2.713314	399769.829681	69.760000
941.000000	94.094305	2.714150	399971.365478	69.790000
942.000000	94.194271	2.714150	399971.365478	69.810000
943.000000	94.294316	2.713314	399769.829681	69.820000
944.000000	94.394327	2.713523	399820.213631	69.850000
945.000000	94.494327	2.713836	399895.789554	69.850000
946.000000	94.594316	2.714045	399946.173503	69.860000
947.000000	94.694308	2.713836	399895.789554	69.860000
948.000000	94.794305	2.713105	399719.445732	69.870000
949.000000	94.894290	2.714359	400021.749427	69.890000
950.000000	94.994289	2.714150	399971.365478	69.920000
951.000000	95.094284	2.713627	399845.405605	69.930000
952.000000	95.194271	2.713732	399870.597580	69.960000
953.000000	95.294095	2.712896	399669.061783	69.960000
954.000000	95.394233	2.714045	399946.173503	69.960000
955.000000	95.494075	2.713523	399820.213631	69.960000
956.000000	95.594249	2.713523	399820.213631	69.970000
957.000000	95.694250	2.713314	399769.829681	69.970000
958.000000	95.794252	2.713418	399795.021656	69.960000
959.000000	95.894199	2.712791	399643.869809	69.990000
960.000000	95.994197	2.713314	399769.829681	70.000000
961.000000	96.094188	2.713627	399845.405605	70.040000
962.000000	96.194202	2.713418	399795.021656	70.080000
963.000000	96.294142	2.713000	399694.253758	70.120000
964.000000	96.394225	2.712477	399568.293885	70.150000
965.000000	96.494199	2.713836	399895.789554	70.180000
966.000000	96.594168	2.714254	399996.557452	70.200000
967.000000	96.694150	2.713836	399895.789554	70.200000
968.000000	96.794178	2.714359	400021.749427	70.210000
969.000000	96.894194	2.712791	399643.869809	70.210000
970.000000	96.994139	2.713418	399795.021656	70.210000
971.000000	97.094118	2.713732	399870.597580	70.210000
972.000000	97.194125	2.713418	399795.021656	70.220000
973.000000	97.294119	2.713732	399870.597580	70.220000
974.000000	97.394149	2.713000	399694.253758	70.240000
975.000000	97.494073	2.713209	399744.637707	70.250000
976.000000	97.594128	2.713732	399870.597580	70.280000
977.000000	97.694121	2.713000	399694.253758	70.310000
978.000000	97.794075	2.712896	399669.061783	70.340000
979.000000	97.894132	2.713105	399719.445732	70.380000
980.000000	97.994130	2.713209	399744.637707	70.410000
981.000000	98.094064	2.713732	399870.597580	70.440000
982.000000	98.194069	2.713000	399694.253758	70.450000
983.000000	98.294097	2.712582	399593.485860	70.450000
984.000000	98.394073	2.713000	399694.253758	70.450000
985.000000	98.494057	2.713000	399694.253758	70.450000
986.000000	98.594012	2.712791	399643.869809	70.460000
987.000000	98.694041	2.713000	399694.253758	70.460000
988.000000	98.794046	2.712686	399618.677834	70.460000
989.000000	98.894068	2.713732	399870.597580	70.460000
990.000000	98.994072	2.713000	399694.253758	70.460000
991.000000	99.094118	2.712896	399669.061783	70.460000
992.000000	99.194047	2.713523	399820.213631	70.460000
993.000000	99.293998	2.713418	399795.021656	70.480000
994.000000	99.394029	2.713000	399694.253758	70.510000
995.000000	99.494024	2.713209	399744.637707	70.560000
996.000000	99.594005	2.712686	399618.677834	70.610000
997.000000	99.694027	2.712896	399669.061783	70.660000
998.000000	99.793976	2.712582	399593.485860	70.690000
999.000000	99.894015	2.713418	399795.021656	70.700000
1000.000000	99.993993	2.713209	399744.637707	70.700000
1001.000000	100.093950	2.713418	399795.021656	70.710000
1002.000000	100.193850	2.713314	399769.829681	70.710000
1003.000000	100.293976	2.713209	399744.637707	70.710000
1004.000000	100.393962	2.713209	399744.637707	70.710000
1005.000000	100.493923	2.713105	399719.445732	70.710000
1006.000000	100.593938	2.713732	399870.597580	70.710000
1007.000000	100.693942	2.712686	399618.677834	70.720000
1008.000000	100.793912	2.712686	399618.677834	70.740000
1009.000000	100.893970	2.712686	399618.677834	70.770000
1010.000000	100.993891	2.712791	399643.869809	70.810000
1011.000000	101.093871	2.713000	399694.253758	70.860000
1012.000000	101.193921	2.712373	399543.101911	70.900000
1013.000000	101.293933	2.712896	399669.061783	70.930000
1014.000000	101.393928	2.713314	399769.829681	70.940000
1015.000000	101.493905	2.712791	399643.869809	70.940000
1016.000000	101.593863	2.713105	399719.445732	70.950000
1017.000000	101.693852	2.712686	399618.677834	70.950000
1018.000000	101.793883	2.713000	399694.253758	70.950000
1019.000000	101.893821	2.713314	399769.829681	70.950000
1020.000000	101.993836	2.713105	399719.445732	70.950000
1021.000000	102.093809	2.713418	399795.021656	70.960000
1022.000000	102.193857	2.712791	399643.869809	70.960000
1023.000000	102.293783	2.713000	399694.253758	70.980000
1024.000000	102.393810	2.713314	399769.829681	71.000000
1025.000000	102.493843	2.713418	399795.021656	71.020000
1026.000000	102.593830	2.712791	399643.869809	71.040000
1027.000000	102.693850	2.713523	399820.213631	71.060000
1028.000000	102.793763	2.712582	399593.485860	71.070000
1029.000000	102.893817	2.713627	399845.405605	71.100000
1030.000000	102.993877	2.712791	399643.869809	71.110000
1031.000000	103.093757	2.713941	399920.981529	71.140000
1032.000000	103.193830	2.712791	399643.869809	71.170000
1033.000000	103.293806	2.713418	399795.021656	71.190000
1034.000000	103.393745	2.713105	399719.445732	71.200000
1035.000000	103.493743	2.713836	399895.789554	71.200000
1036.000000	103.593741	2.713627	399845.405605	71.200000
1037.000000	103.693772	2.713627	399845.405605	71.210000
1038.000000	103.793767	2.713000	399694.253758	71.240000
1039.000000	103.893777	2.713314	399769.829681	71.250000
1040.000000	103.993749	2.712896	399669.061783	71.280000
1041.000000	104.093699	2.712896	399669.061783	71.290000
1042.000000	104.193717	2.713941	399920.981529	71.320000
1043.000000	104.293730	2.713000	399694.253758	71.330000
1044.000000	104.393729	2.713523	399820.213631	71.340000
1045.000000	104.493741	2.712686	399618.677834	71.360000
1046.000000	104.593715	2.713000	399694.253758	71.380000
1047.000000	104.693735	2.713418	399795.021656	71.410000
1048.000000	104.793723	2.713627	399845.405605	71.420000
1049.000000	104.893708	2.712791	399643.869809	71.430000
1050.000000	104.993671	2.712791	399643.869809	71.430000
1051.000000	105.093633	2.713523	399820.213631	71.440000
1052.000000	105.193737	2.713000	399694.253758	71.440000
1053.000000	105.293525	2.713836	399895.789554	71.470000
1054.000000	105.393630	2.713000	399694.253758	71.480000
1055.000000	105.493662	2.712791	399643.869809	71.500000
1056.000000	105.593626	2.712896	399669.061783	71.530000
1057.000000	105.693635	2.713105	399719.445732	71.550000
1058.000000	105.793636	2.714150	399971.365478	71.550000
1059.000000	105.893635	2.713732	399870.597580	71.560000
1060.000000	105.993650	2.713836	399895.789554	71.560000
1061.000000	106.093569	2.713523	399820.213631	71.560000
1062.000000	106.193617	2.713523	399820.213631	71.560000
1063.000000	106.293653	2.713627	399845.405605	71.560000
1064.000000	106.393547	2.713314	399769.829681	71.590000
1065.000000	106.493561	2.713627	399845.405605	71.610000
1066.000000	106.593594	2.713418	399795.021656	71.650000
1067.000000	106.693534	2.714359	400021.749427	71.680000
1068.000000	106.793607	2.712896	399669.061783	71.720000
1069.000000	106.893535	2.713418	399795.021656	71.750000
1070.000000	106.993521	2.713836	399895.789554	71.780000
1071.000000	107.093514	2.713523	399820.213631	71.800000
1072.000000	107.193559	2.713000	399694.253758	71.800000
1073.000000	107.293551	2.712896	399669.061783	71.810000
1074.000000	107.393556	2.712582	399593.485860	71.810000
1075.000000	107.493532	2.713105	399719.445732	71.810000
1076.000000	107.593523	2.713627	399845.405605	71.810000
1077.000000	107.693498	2.712791	399643.869809	71.820000
1078.000000	107.793534	2.713523	399820.213631	71.820000
1079.000000	107.893525	2.713209	399744.637707	71.840000
1080.000000	107.993513	2.713105	399719.445732	71.860000
1081.000000	108.093526	2.713627	399845.405605	71.890000
1082.000000	108.193504	2.713314	399769.829681	71.920000
1083.000000	108.293419	2.713523	399820.213631	71.960000
1084.000000	108.393448	2.713105	399719.445732	71.990000
1085.000000	108.493420	2.713000	399694.253758	72.010000
1086.000000	108.593436	2.713209	399744.637707	72.040000
1087.000000	108.693424	2.713105	399719.445732	72.040000
1088.000000	108.793375	2.713523	399820.213631	72.050000
1089.000000	108.893423	2.713000	399694.253758	72.050000
1090.000000	108.993463	2.713732	399870.597580	72.050000
1091.000000	109.093372	2.713209	399744.637707	72.060000
1092.000000	109.193405	2.713941	399920.981529	72.060000
1093.000000	109.293385	2.713627	399845.405605	72.060000
1094.000000	109.393421	2.713105	399719.445732	72.050000
1095.000000	109.493256	2.713732	399870.597580	72.050000
1096.000000	109.593355	2.713418	399795.021656	72.050000
1097.000000	109.693425	2.713314	399769.829681	72.050000
1098.000000	109.793372	2.713627	399845.405605	72.090000
1099.000000	109.893419	2.713418	399795.021656	72.110000
1100.000000	109.993420	2.713314	399769.829681	72.160000
1101.000000	110.093415	2.713523	399820.213631	72.220000
1102.000000	110.193362	2.712896	399669.061783	72.270000
1103.000000	110.293372	2.713941	399920.981529	72.310000
1104.000000	110.393350	2.713523	399820.213631	72.310000
1105.000000	110.493313	2.712791	399643.869809	72.310000
1106.000000	110.593308	2.713314	399769.829681	72.320000
1107.000000	110.693219	2.713000	399694.253758	72.320000
1108.000000	110.793287	2.712686	399618.677834	72.320000
1109.000000	110.893281	2.712686	399618.677834	72.320000
1110.000000	110.993213	2.712686	399618.677834	72.320000
1111.000000	111.093258	2.712268	399517.909936	72.320000
1112.000000	111.193306	2.712896	399669.061783	72.320000
1113.000000	111.293279	2.713418	399795.021656	72.330000
1114.000000	111.393255	2.712477	399568.293885	72.370000
1115.000000	111.493260	2.712896	399669.061783	72.410000
1116.000000	111.593251	2.713000	399694.253758	72.460000
1117.000000	111.693192	2.712686	399618.677834	72.500000
1118.000000	111.793208	2.713314	399769.829681	72.540000
1119.000000	111.893082	2.713627	399845.405605	72.550000
1120.000000	111.993161	2.713732	399870.597580	72.550000
1121.000000	112.093150	2.713000	399694.253758	72.550000
1122.000000	112.193104	2.713314	399769.829681	72.560000
1123.000000	112.293052	2.712791	399643.869809	72.560000
1124.000000	112.393079	2.712686	399618.677834	72.560000
1125.000000	112.493111	2.712791	399643.869809	72.560000
1126.000000	112.593237	2.712896	399669.061783	72.550000
1127.000000	112.693265	2.713209	399744.637707	72.550000
1128.000000	112.793212	2.712896	399669.061783	72.570000
1129.000000	112.893162	2.712373	399543.101911	72.590000
1130.000000	112.993202	2.712582	399593.485860	72.610000
1131.000000	113.093158	2.713000	399694.253758	72.640000
1132.000000	113.193232	2.712164	399492.717962	72.660000
1133.000000	113.293197	2.713314	399769.829681	72.690000
1134.000000	113.393155	2.712582	399593.485860	72.710000
1135.000000	113.493019	2.712373	399543.101911	72.730000
1136.000000	113.593186	2.711955	399442.334012	72.760000
1137.000000	113.693140	2.713523	399820.213631	72.790000
1138.000000	113.793184	2.712686	399618.677834	72.800000
1139.000000	113.893147	2.712896	399669.061783	72.810000
1140.000000	113.993164	2.712477	399568.293885	72.810000
1141.000000	114.093091	2.712164	399492.717962	72.810000
1142.000000	114.193141	2.712582	399593.485860	72.810000
1143.000000	114.293063	2.712268	399517.909936	72.820000
1144.000000	114.393125	2.712477	399568.293885	72.840000
1145.000000	114.492900	2.714045	399946.173503	72.860000
1146.000000	114.593139	2.711850	399417.142038	72.890000
1147.000000	114.693077	2.712164	399492.717962	72.920000
1148.000000	114.793157	2.712686	399618.677834	72.930000
1149.000000	114.893103	2.712582	399593.485860	72.960000
1150.000000	114.993091	2.712373	399543.101911	72.980000
1151.000000	115.093029	2.712164	399492.717962	73.000000
1152.000000	115.193032	2.712896	399669.061783	73.020000
1153.000000	115.292891	2.713209	399744.637707	73.050000
1154.000000	115.393052	2.712477	399568.293885	73.050000
1155.000000	115.493032	2.712686	399618.677834	73.050000
1156.000000	115.593034	2.712373	399543.101911	73.060000
1157.000000	115.693058	2.712373	399543.101911	73.060000
1158.000000	115.793016	2.712582	399593.485860	73.050000
1159.000000	115.893033	2.712373	399543.101911	73.080000
1160.000000	115.993035	2.712477	399568.293885	73.100000
1161.000000	116.092980	2.713209	399744.637707	73.120000
1162.000000	116.192974	2.712477	399568.293885	73.140000
1163.000000	116.293005	2.712686	399618.677834	73.150000
1164.000000	116.393017	2.712791	399643.869809	73.150000
1165.000000	116.493021	2.712582	399593.485860	73.160000
1166.000000	116.593001	2.712791	399643.869809	73.160000
1167.000000	116.692955	2.712373	399543.101911	73.160000
1168.000000	116.792953	2.712164	399492.717962	73.190000
1169.000000	116.892969	2.712477	399568.293885	73.190000
1170.000000	116.993003	2.712896	399669.061783	73.220000
1171.000000	117.092957	2.713105	399719.445732	73.250000
1172.000000	117.192981	2.712791	399643.869809	73.290000
1173.000000	117.292863	2.712268	399517.909936	73.310000
1174.000000	117.392897	2.712791	399643.869809	73.340000
1175.000000	117.492946	2.712582	399593.485860	73.370000
1176.000000	117.592890	2.711746	399391.950063	73.390000
1177.000000	117.692946	2.712896	399669.061783	73.410000
1178.000000	117.792825	2.712896	399669.061783	73.410000
1179.000000	117.892898	2.712477	399568.293885	73.420000
1180.000000	117.992902	2.713000	399694.253758	73.420000
1181.000000	118.092870	2.711641	399366.758089	73.420000
1182.000000	118.192870	2.712477	399568.293885	73.430000
1183.000000	118.292867	2.713418	399795.021656	73.430000
1184.000000	118.392837	2.712164	399492.717962	73.460000
1185.000000	118.492879	2.712268	399517.909936	73.460000
1186.000000	118.592886	2.712791	399643.869809	73.490000
1187.000000	118.692894	2.711746	399391.950063	73.520000
1188.000000	118.792879	2.712059	399467.525987	73.540000
1189.000000	118.892873	2.712164	399492.717962	73.580000
1190.000000	118.992861	2.712164	399492.717962	73.600000
1191.000000	119.092794	2.712164	399492.717962	73.620000
1192.000000	119.192840	2.712477	399568.293885	73.640000
1193.000000	119.292821	2.712059	399467.525987	73.650000
1194.000000	119.392853	2.712686	399618.677834	73.650000
1195.000000	119.492756	2.712896	399669.061783	73.660000
1196.000000	119.592824	2.711850	399417.142038	73.660000
1197.000000	119.692780	2.712164	399492.717962	73.660000
1198.000000	119.792806	2.713105	399719.445732	73.660000
1199.000000	119.892789	2.712686	399618.677834	73.660000
1200.000000	119.992758	2.712582	399593.485860	73.670000
1201.000000	120.092726	2.712373	399543.101911	73.670000
1202.000000	120.192773	2.712477	399568.293885	73.670000
1203.000000	120.292782	2.712686	399618.677834	73.670000
1204.000000	120.392789	2.712791	399643.869809	73.700000
1205.000000	120.492763	2.712477	399568.293885	73.740000
1206.000000	120.592737	2.712582	399593.485860	73.790000
1207.000000	120.692748	2.713000	399694.253758	73.840000
1208.000000	120.792729	2.712896	399669.061783	73.890000
1209.000000	120.892707	2.712582	399593.485860	73.930000
1210.000000	120.992722	2.712477	399568.293885	73.930000
1211.000000	121.092726	2.712373	399543.101911	73.930000
1212.000000	121.192685	2.712373	399543.101911	73.930000
1213.000000	121.292736	2.712582	399593.485860	73.930000
1214.000000	121.392648	2.713000	399694.253758	73.930000
1215.000000	121.492670	2.713105	399719.445732	73.930000
1216.000000	121.592689	2.712896	399669.061783	73.930000
1217.000000	121.692683	2.713314	399769.829681	73.930000
1218.000000	121.792699	2.712582	399593.485860	73.930000
1219.000000	121.892675	2.713105	399719.445732	73.950000
1220.000000	121.992683	2.712896	399669.061783	73.980000
1221.000000	122.092661	2.712896	399669.061783	74.030000
1222.000000	122.192684	2.712896	399669.061783	74.070000
1223.000000	122.292646	2.713105	399719.445732	74.130000
1224.000000	122.392663	2.712896	399669.061783	74.160000
1225.000000	122.492512	2.713105	399719.445732	74.170000
1226.000000	122.592625	2.713209	399744.637707	74.170000
1227.000000	122.692597	2.712791	399643.869809	74.170000
1228.000000	122.792596	2.713105	399719.445732	74.170000
1229.000000	122.892604	2.712686	399618.677834	74.170000
1230.000000	122.992620	2.713418	399795.021656	74.170000
1231.000000	123.092600	2.713105	399719.445732	74.170000
1232.000000	123.192592	2.712477	399568.293885	74.170000
1233.000000	123.292560	2.712477	399568.293885	74.170000
1234.000000	123.392555	2.712582	399593.485860	74.170000
1235.000000	123.492555	2.712791	399643.869809	74.190000
1236.000000	123.592574	2.713000	399694.253758	74.210000
1237.000000	123.692609	2.712686	399618.677834	74.230000
1238.000000	123.792567	2.712686	399618.677834	74.260000
1239.000000	123.892590	2.713209	399744.637707	74.300000
1240.000000	123.992557	2.713209	399744.637707	74.340000
1241.000000	124.092495	2.713418	399795.021656	74.370000
1242.000000	124.192548	2.712477	399568.293885	74.400000
1243.000000	124.292535	2.713314	399769.829681	74.420000
1244.000000	124.392514	2.713209	399744.637707	74.430000
1245.000000	124.492518	2.713209	399744.637707	74.430000
1246.000000	124.592511	2.712477	399568.293885	74.430000
1247.000000	124.692501	2.712686	399618.677834	74.430000
1248.000000	124.792500	2.713209	399744.637707	74.430000
1249.000000	124.892482	2.713105	399719.445732	74.430000
1250.000000	124.992439	2.712896	399669.061783	74.450000
1251.000000	125.092445	2.712059	399467.525987	74.460000
1252.000000	125.192436	2.713314	399769.829681	74.490000
1253.000000	125.292289	2.712268	399517.909936	74.520000
1254.000000	125.392492	2.713627	399845.405605	74.550000
1255.000000	125.492453	2.712686	399618.677834	74.580000
1256.000000	125.592460	2.713627	399845.405605	74.610000
1257.000000	125.692470	2.712373	399543.101911	74.630000
1258.000000	125.792464	2.713000	399694.253758	74.650000
1259.000000	125.892446	2.712686	399618.677834	74.650000
1260.000000	125.992453	2.712896	399669.061783	74.660000
1261.000000	126.092384	2.712373	399543.101911	74.660000
1262.000000	126.192415	2.712896	399669.061783	74.660000
1263.000000	126.292346	2.712791	399643.869809	74.660000
1264.000000	126.392458	2.712477	399568.293885	74.670000
1265.000000	126.492406	2.712896	399669.061783	74.690000
1266.000000	126.592370	2.713209	399744.637707	74.710000
1267.000000	126.692435	2.713000	399694.253758	74.730000
1268.000000	126.792267	2.712582	399593.485860	74.760000
1269.000000	126.892347	2.712477	399568.293885	74.780000
1270.000000	126.992386	2.712477	399568.293885	74.790000
1271.000000	127.092321	2.712373	399543.101911	74.790000
1272.000000	127.192314	2.712791	399643.869809	74.790000
1273.000000	127.292363	2.712896	399669.061783	74.790000
1274.000000	127.392341	2.712477	399568.293885	74.800000
1275.000000	127.492325	2.712268	399517.909936	74.820000
1276.000000	127.592258	2.712686	399618.677834	74.850000
1277.000000	127.692277	2.712791	399643.869809	74.880000
1278.000000	127.792328	2.712477	399568.293885	74.910000
1279.000000	127.892322	2.713000	399694.253758	74.930000
1280.000000	127.992365	2.712582	399593.485860	74.960000
1281.000000	128.092264	2.711850	399417.142038	74.970000
1282.000000	128.192302	2.713105	399719.445732	74.980000
1283.000000	128.292222	2.712791	399643.869809	75.010000
1284.000000	128.392291	2.712896	399669.061783	75.030000
1285.000000	128.492224	2.713418	399795.021656	75.040000
1286.000000	128.592261	2.712582	399593.485860	75.040000
1287.000000	128.692273	2.712686	399618.677834	75.040000
1288.000000	128.792238	2.712373	399543.101911	75.050000
1289.000000	128.892261	2.713209	399744.637707	75.050000
1290.000000	128.992251	2.712477	399568.293885	75.060000
1291.000000	129.092186	2.712686	399618.677834	75.080000
1292.000000	129.192244	2.713105	399719.445732	75.100000
1293.000000	129.292095	2.712477	399568.293885	75.130000
1294.000000	129.392172	2.711537	399341.566114	75.150000
1295.000000	129.492202	2.712686	399618.677834	75.180000
1296.000000	129.592146	2.712373	399543.101911	75.200000
1297.000000	129.692072	2.712896	399669.061783	75.230000
1298.000000	129.792052	2.712268	399517.909936	75.240000
1299.000000	129.892074	2.712686	399618.677834	75.260000
1300.000000	129.992160	2.712477	399568.293885	75.290000
1301.000000	130.092221	2.712164	399492.717962	75.290000
1302.000000	130.192160	2.712059	399467.525987	75.290000
1303.000000	130.292160	2.712477	399568.293885	75.290000
1304.000000	130.392172	2.712791	399643.869809	75.300000
1305.000000	130.492138	2.711955	399442.334012	75.300000
1306.000000	130.592131	2.711850	399417.142038	75.300000
1307.000000	130.692150	2.712164	399492.717962	75.300000
1308.000000	130.792133	2.712373	399543.101911	75.300000
1309.000000	130.891956	2.712896	399669.061783	75.300000
1310.000000	130.992032	2.712059	399467.525987	75.310000
1311.000000	131.091931	2.711746	399391.950063	75.330000
1312.000000	131.191955	2.712164	399492.717962	75.380000
1313.000000	131.291971	2.712268	399517.909936	75.430000
1314.000000	131.391940	2.712164	399492.717962	75.490000
1315.000000	131.491940	2.712164	399492.717962	75.530000
1316.000000	131.592094	2.712477	399568.293885	75.560000
1317.000000	131.692054	2.712059	399467.525987	75.560000
1318.000000	131.792073	2.712164	399492.717962	75.560000
1319.000000	131.892067	2.712164	399492.717962	75.560000
1320.000000	131.992041	2.711850	399417.142038	75.560000
1321.000000	132.092010	2.711955	399442.334012	75.560000
1322.000000	132.192066	2.711641	399366.758089	75.560000
1323.000000	132.292017	2.711537	399341.566114	75.560000
1324.000000	132.392015	2.711432	399316.374140	75.560000
1325.000000	132.492045	2.711850	399417.142038	75.570000
1326.000000	132.592036	2.712582	399593.485860	75.590000
1327.000000	132.691961	2.713105	399719.445732	75.620000
1328.000000	132.791962	2.711641	399366.758089	75.660000
1329.000000	132.892017	2.711746	399391.950063	75.720000
1330.000000	132.992009	2.712268	399517.909936	75.760000
1331.000000	133.091952	2.712164	399492.717962	75.790000
1332.000000	133.192005	2.711223	399265.990191	75.800000
1333.000000	133.291993	2.712268	399517.909936	75.800000
1334.000000	133.391994	2.711850	399417.142038	75.800000
1335.000000	133.491946	2.712164	399492.717962	75.800000
1336.000000	133.592008	2.711223	399265.990191	75.800000
1337.000000	133.691989	2.712164	399492.717962	75.800000
1338.000000	133.791960	2.712791	399643.869809	75.800000
1339.000000	133.891922	2.711850	399417.142038	75.810000
1340.000000	133.992002	2.711850	399417.142038	75.810000
1341.000000	134.091906	2.711746	399391.950063	75.810000
1342.000000	134.191934	2.711432	399316.374140	75.810000
1343.000000	134.291937	2.712373	399543.101911	75.820000
1344.000000	134.391937	2.712686	399618.677834	75.850000
1345.000000	134.491907	2.711850	399417.142038	75.890000
1346.000000	134.591906	2.712791	399643.869809	75.930000
1347.000000	134.691873	2.712477	399568.293885	75.980000
1348.000000	134.791911	2.712164	399492.717962	76.010000
1349.000000	134.891913	2.711537	399341.566114	76.050000
1350.000000	134.991904	2.711955	399442.334012	76.050000
1351.000000	135.091827	2.712373	399543.101911	76.050000
1352.000000	135.191886	2.711955	399442.334012	76.060000
1353.000000	135.291692	2.712268	399517.909936	76.060000
1354.000000	135.391839	2.713105	399719.445732	76.060000
1355.000000	135.491866	2.711641	399366.758089	76.060000
1356.000000	135.591865	2.712582	399593.485860	76.060000
1357.000000	135.691855	2.711641	399366.758089	76.070000
1358.000000	135.791770	2.712059	399467.525987	76.070000
1359.000000	135.891806	2.712477	399568.293885	76.090000
1360.000000	135.991801	2.712686	399618.677834	76.130000
1361.000000	136.091786	2.711850	399417.142038	76.160000
1362.000000	136.191784	2.712582	399593.485860	76.210000
1363.000000	136.291786	2.712582	399593.485860	76.250000
1364.000000	136.391807	2.712268	399517.909936	76.290000
1365.000000	136.491811	2.711955	399442.334012	76.300000
1366.000000	136.591783	2.712373	399543.101911	76.300000
1367.000000	136.691792	2.712164	399492.717962	76.300000
1368.000000	136.791797	2.711746	399391.950063	76.300000
1369.000000	136.891759	2.712059	399467.525987	76.310000
1370.000000	136.991783	2.712373	399543.101911	76.310000
1371.000000	137.091830	2.712373	399543.101911	76.310000
1372.000000	137.191744	2.712373	399543.101911	76.310000
1373.000000	137.291766	2.712268	399517.909936	76.310000
1374.000000	137.391712	2.711537	399341.566114	76.320000
1375.000000	137.491739	2.712791	399643.869809	76.340000
1376.000000	137.591719	2.712896	399669.061783	76.370000
1377.000000	137.691729	2.712059	399467.525987	76.390000
1378.000000	137.791684	2.711537	399341.566114	76.410000
1379.000000	137.891740	2.712477	399568.293885	76.420000
1380.000000	137.991684	2.712373	399543.101911	76.450000
1381.000000	138.091648	2.711955	399442.334012	76.470000
1382.000000	138.191666	2.711328	399291.182165	76.500000
1383.000000	138.291683	2.712791	399643.869809	76.520000
1384.000000	138.391698	2.712791	399643.869809	76.550000
1385.000000	138.491681	2.712477	399568.293885	76.550000
1386.000000	138.591690	2.711850	399417.142038	76.560000
1387.000000	138.691692	2.711955	399442.334012	76.560000
1388.000000	138.791660	2.712268	399517.909936	76.560000
1389.000000	138.891691	2.712686	399618.677834	76.590000
1390.000000	138.991676	2.711432	399316.374140	76.590000
1391.000000	139.091583	2.712582	399593.485860	76.610000
1392.000000	139.191614	2.711955	399442.334012	76.640000
1393.000000	139.291592	2.712268	399517.909936	76.670000
1394.000000	139.391653	2.711955	399442.334012	76.680000
1395.000000	139.491599	2.712164	399492.717962	76.700000
1396.000000	139.591640	2.711746	399391.950063	76.720000
1397.000000	139.691625	2.712477	399568.293885	76.740000
1398.000000	139.791589	2.712373	399543.101911	76.760000
1399.000000	139.891564	2.711119	399240.798216	76.790000
1400.000000	139.991586	2.711746	399391.950063	76.810000
1401.000000	140.091540	2.712059	399467.525987	76.820000
1402.000000	140.191576	2.712896	399669.061783	76.820000
1403.000000	140.291589	2.711955	399442.334012	76.820000
1404.000000	140.391511	2.712059	399467.525987	76.820000
1405.000000	140.491445	2.713105	399719.445732	76.830000
1406.000000	140.591568	2.712686	399618.677834	76.850000
1407.000000	140.691532	2.712059	399467.525987	76.870000
1408.000000	140.791567	2.712373	399543.101911	76.900000
1409.000000	140.891532	2.712059	399467.525987	76.910000
1410.000000	140.991538	2.712791	399643.869809	76.920000
1411.000000	141.091491	2.711955	399442.334012	76.920000
1412.000000	141.191528	2.712373	399543.101911	76.920000
1413.000000	141.291480	2.712477	399568.293885	76.920000
1414.000000	141.391480	2.712477	399568.293885	76.930000
1415.000000	141.491450	2.712059	399467.525987	76.950000
1416.000000	141.591502	2.712791	399643.869809	76.960000
1417.000000	141.691492	2.712373	399543.101911	76.990000
1418.000000	141.791490	2.711955	399442.334012	77.020000
1419.000000	141.891479	2.712059	399467.525987	77.050000
1420.000000	141.991463	2.712896	399669.061783	77.080000
1421.000000	142.091420	2.711955	399442.334012	77.100000
1422.000000	142.191465	2.712268	399517.909936	77.120000
1423.000000	142.291430	2.712268	399517.909936	77.150000
1424.000000	142.391444	2.712268	399517.909936	77.170000
1425.000000	142.491421	2.711850	399417.142038	77.190000
1426.000000	142.591423	2.712373	399543.101911	77.190000
1427.000000	142.691362	2.712791	399643.869809	77.190000
1428.000000	142.791394	2.712791	399643.869809	77.190000
1429.000000	142.891428	2.712477	399568.293885	77.200000
1430.000000	142.991423	2.712059	399467.525987	77.200000
1431.000000	143.091373	2.712268	399517.909936	77.230000
1432.000000	143.191440	2.712477	399568.293885	77.250000
1433.000000	143.291396	2.711955	399442.334012	77.270000
1434.000000	143.391367	2.712059	399467.525987	77.300000
1435.000000	143.491376	2.712791	399643.869809	77.330000
1436.000000	143.591391	2.711641	399366.758089	77.340000
1437.000000	143.691311	2.712059	399467.525987	77.360000
1438.000000	143.791358	2.712686	399618.677834	77.380000
1439.000000	143.891348	2.711955	399442.334012	77.410000
1440.000000	143.991367	2.712268	399517.909936	77.430000
1441.000000	144.091295	2.712059	399467.525987	77.420000
1442.000000	144.191342	2.712477	399568.293885	77.430000
1443.000000	144.291256	2.712164	399492.717962	77.430000
1444.000000	144.391331	2.712268	399517.909936	77.430000
1445.000000	144.491322	2.712582	399593.485860	77.430000
1446.000000	144.591327	2.712059	399467.525987	77.430000
1447.000000	144.691292	2.712059	399467.525987	77.440000
1448.000000	144.791192	2.712059	399467.525987	77.440000
1449.000000	144.891321	2.713314	399769.829681	77.440000
1450.000000	144.991272	2.711746	399391.950063	77.440000
1451.000000	145.091236	2.712477	399568.293885	77.480000
1452.000000	145.191207	2.712059	399467.525987	77.520000
1453.000000	145.291127	2.711746	399391.950063	77.560000
1454.000000	145.391254	2.712059	399467.525987	77.610000
1455.000000	145.491229	2.712582	399593.485860	77.670000
1456.000000	145.591248	2.711955	399442.334012	77.690000
1457.000000	145.691240	2.712477	399568.293885	77.700000
1458.000000	145.791251	2.712059	399467.525987	77.700000
1459.000000	145.891251	2.712268	399517.909936	77.700000
1460.000000	145.991231	2.711955	399442.334012	77.700000
1461.000000	146.091174	2.711850	399417.142038	77.700000
1462.000000	146.191188	2.711955	399442.334012	77.700000
1463.000000	146.291216	2.712896	399669.061783	77.700000
1464.000000	146.391188	2.711850	399417.142038	77.700000
1465.000000	146.491199	2.711955	399442.334012	77.710000
1466.000000	146.591199	2.711850	399417.142038	77.730000
1467.000000	146.691156	2.711641	399366.758089	77.770000
1468.000000	146.791188	2.712582	399593.485860	77.810000
1469.000000	146.891174	2.712059	399467.525987	77.850000
1470.000000	146.991237	2.712164	399492.717962	77.900000
1471.000000	147.091162	2.711432	399316.374140	77.930000
1472.000000	147.191165	2.710910	399190.414267	77.940000
1473.000000	147.291091	2.711537	399341.566114	77.930000
1474.000000	147.391140	2.711746	399391.950063	77.940000
1475.000000	147.491143	2.711955	399442.334012	77.940000
1476.000000	147.591146	2.711537	399341.566114	77.940000
1477.000000	147.691151	2.711746	399391.950063	77.940000
1478.000000	147.791133	2.712059	399467.525987	77.940000
1479.000000	147.891106	2.711223	399265.990191	77.940000
1480.000000	147.991103	2.711432	399316.374140	77.950000
1481.000000	148.090989	2.711223	399265.990191	77.950000
1482.000000	148.191099	2.712059	399467.525987	77.950000
1483.000000	148.291065	2.711746	399391.950063	77.970000
1484.000000	148.391072	2.711641	399366.758089	77.990000
1485.000000	148.491043	2.711746	399391.950063	78.020000
1486.000000	148.590957	2.712059	399467.525987	78.060000
1487.000000	148.691034	2.711537	399341.566114	78.110000
1488.000000	148.791057	2.711432	399316.374140	78.160000
1489.000000	148.891044	2.711850	399417.142038	78.180000
1490.000000	148.991038	2.711328	399291.182165	78.210000
1491.000000	149.090951	2.712059	399467.525987	78.210000
1492.000000	149.191032	2.712059	399467.525987	78.210000
1493.000000	149.290996	2.711641	399366.758089	78.210000
1494.000000	149.390922	2.711328	399291.182165	78.220000
1495.000000	149.490973	2.711537	399341.566114	78.220000
1496.000000	149.591017	2.712059	399467.525987	78.220000
1497.000000	149.690974	2.711850	399417.142038	78.220000
1498.000000	149.790926	2.711850	399417.142038	78.220000
1499.000000	149.890896	2.711328	399291.182165	78.240000
1500.000000	149.990984	2.712059	399467.525987	78.260000
1501.000000	150.090821	2.711432	399316.374140	78.300000
1502.000000	150.190849	2.711432	399316.374140	78.350000
1503.000000	150.290931	2.712059	399467.525987	78.390000
1504.000000	150.390792	2.711014	399215.606242	78.430000
1505.000000	150.490809	2.711223	399265.990191	78.450000
1506.000000	150.590900	2.712373	399543.101911	78.460000
1507.000000	150.690983	2.711223	399265.990191	78.460000
1508.000000	150.790928	2.711537	399341.566114	78.460000
1509.000000	150.890911	2.711641	399366.758089	78.460000
1510.000000	150.990924	2.711328	399291.182165	78.460000
1511.000000	151.090876	2.710910	399190.414267	78.460000
1512.000000	151.190927	2.710492	399089.646369	78.460000
1513.000000	151.290884	2.712059	399467.525987	78.460000
1514.000000	151.390863	2.711955	399442.334012	78.460000
1515.000000	151.490877	2.711850	399417.142038	78.480000
1516.000000	151.590894	2.711850	399417.142038	78.500000
1517.000000	151.690885	2.712164	399492.717962	78.530000
1518.000000	151.790899	2.711432	399316.374140	78.540000
1519.000000	151.890881	2.711746	399391.950063	78.580000
1520.000000	151.990882	2.711537	399341.566114	78.610000
1521.000000	152.090875	2.711432	399316.374140	78.630000
1522.000000	152.190876	2.711537	399341.566114	78.660000
1523.000000	152.290893	2.711850	399417.142038	78.690000
1524.000000	152.390873	2.711537	399341.566114	78.710000
1525.000000	152.490832	2.712268	399517.909936	78.710000
1526.000000	152.590788	2.711432	399316.374140	78.720000
1527.000000	152.690788	2.711746	399391.950063	78.720000
1528.000000	152.790829	2.711119	399240.798216	78.720000
1529.000000	152.890823	2.711537	399341.566114	78.720000
1530.000000	152.990784	2.711955	399442.334012	78.720000
1531.000000	153.090811	2.711955	399442.334012	78.750000
1532.000000	153.190817	2.712164	399492.717962	78.770000
1533.000000	153.290730	2.711537	399341.566114	78.790000
1534.000000	153.390795	2.712059	399467.525987	78.820000
1535.000000	153.490777	2.712059	399467.525987	78.850000
1536.000000	153.590715	2.712164	399492.717962	78.870000
1537.000000	153.690777	2.711119	399240.798216	78.900000
1538.000000	153.790712	2.711955	399442.334012	78.930000
1539.000000	153.890761	2.711223	399265.990191	78.940000
1540.000000	153.990750	2.711850	399417.142038	78.950000
1541.000000	154.090698	2.711850	399417.142038	78.950000
1542.000000	154.190716	2.711641	399366.758089	78.960000
1543.000000	154.290752	2.711537	399341.566114	78.960000
1544.000000	154.390737	2.712059	399467.525987	78.960000
1545.000000	154.490731	2.712477	399568.293885	78.960000
1546.000000	154.590674	2.711955	399442.334012	78.990000
1547.000000	154.690661	2.712268	399517.909936	79.000000
1548.000000	154.790682	2.711641	399366.758089	79.020000
1549.000000	154.890701	2.711850	399417.142038	79.040000
1550.000000	154.990688	2.711537	399341.566114	79.060000
1551.000000	155.090636	2.712477	399568.293885	79.080000
1552.000000	155.190693	2.711537	399341.566114	79.090000
1553.000000	155.290494	2.712059	399467.525987	79.090000
1554.000000	155.390685	2.712268	399517.909936	79.090000
1555.000000	155.490693	2.711641	399366.758089	79.100000
1556.000000	155.590655	2.712164	399492.717962	79.110000
1557.000000	155.690637	2.712373	399543.101911	79.140000
1558.000000	155.790605	2.711955	399442.334012	79.170000
1559.000000	155.890651	2.711746	399391.950063	79.190000
1560.000000	155.990614	2.712373	399543.101911	79.220000
1561.000000	156.090611	2.711955	399442.334012	79.230000
1562.000000	156.190582	2.712791	399643.869809	79.260000
1563.000000	156.290581	2.712268	399517.909936	79.280000
1564.000000	156.390607	2.712164	399492.717962	79.300000
1565.000000	156.490605	2.712268	399517.909936	79.320000
1566.000000	156.590607	2.711641	399366.758089	79.340000
1567.000000	156.690611	2.711746	399391.950063	79.350000
1568.000000	156.790585	2.711850	399417.142038	79.350000
1569.000000	156.890583	2.712373	399543.101911	79.350000
1570.000000	156.990584	2.711850	399417.142038	79.360000
1571.000000	157.090570	2.712059	399467.525987	79.370000
1572.000000	157.190591	2.712791	399643.869809	79.390000
1573.000000	157.290527	2.712164	399492.717962	79.420000
1574.000000	157.390554	2.712686	399618.677834	79.450000
1575.000000	157.490514	2.712373	399543.101911	79.470000
1576.000000	157.590528	2.712268	399517.909936	79.470000
1577.000000	157.690531	2.711432	399316.374140	79.500000
1578.000000	157.790523	2.711537	399341.566114	79.520000
1579.000000	157.890524	2.712164	399492.717962	79.540000
1580.000000	157.990565	2.712373	399543.101911	79.560000
1581.000000	158.090463	2.711223	399265.990191	79.580000
1582.000000	158.190559	2.710910	399190.414267	79.590000
1583.000000	158.290494	2.712582	399593.485860	79.590000
1584.000000	158.390313	2.711641	399366.758089	79.590000
1585.000000	158.490448	2.711746	399391.950063	79.600000
1586.000000	158.590475	2.712059	399467.525987	79.600000
1587.000000	158.690453	2.711850	399417.142038	79.600000
1588.000000	158.790462	2.711955	399442.334012	79.600000
1589.000000	158.890347	2.711850	399417.142038	79.600000
1590.000000	158.990418	2.712373	399543.101911	79.600000
1591.000000	159.090384	2.712373	399543.101911	79.620000
1592.000000	159.190446	2.711746	399391.950063	79.650000
1593.000000	159.290373	2.711850	399417.142038	79.680000
1594.000000	159.390408	2.711537	399341.566114	79.730000
1595.000000	159.490431	2.711955	399442.334012	79.790000
1596.000000	159.590427	2.711746	399391.950063	79.830000
1597.000000	159.690477	2.712164	399492.717962	79.860000
1598.000000	159.790420	2.711432	399316.374140	79.860000
1599.000000	159.890379	2.711432	399316.374140	79.860000
1600.000000	159.990403	2.712373	399543.101911	79.860000
1601.000000	160.090368	2.711537	399341.566114	79.860000
1602.000000	160.190332	2.711850	399417.142038	79.860000
1603.000000	160.290341	2.712477	399568.293885	79.870000
1604.000000	160.390364	2.712164	399492.717962	79.870000
1605.000000	160.490348	2.711850	399417.142038	79.870000
1606.000000	160.590366	2.711223	399265.990191	79.880000
1607.000000	160.690351	2.711641	399366.758089	79.900000
1608.000000	160.790313	2.711223	399265.990191	79.940000
1609.000000	160.890296	2.711432	399316.374140	79.980000
1610.000000	160.990264	2.711432	399316.374140	80.020000
1611.000000	161.090278	2.712373	399543.101911	80.060000
1612.000000	161.190324	2.712477	399568.293885	80.090000
1613.000000	161.290277	2.711641	399366.758089	80.090000
1614.000000	161.390278	2.711432	399316.374140	80.100000
1615.000000	161.490305	2.711432	399316.374140	80.100000
1616.000000	161.590321	2.711641	399366.758089	80.100000
1617.000000	161.690265	2.711432	399316.374140	80.100000
1618.000000	161.790285	2.711119	399240.798216	80.100000
1619.000000	161.890289	2.710701	399140.030318	80.100000
1620.000000	161.990243	2.711746	399391.950063	80.100000
1621.000000	162.090249	2.711537	399341.566114	80.110000
1622.000000	162.190267	2.711850	399417.142038	80.110000
1623.000000	162.290190	2.711746	399391.950063	80.110000
1624.000000	162.390242	2.711014	399215.606242	80.130000
1625.000000	162.490240	2.711955	399442.334012	80.150000
1626.000000	162.590237	2.711641	399366.758089	80.180000
1627.000000	162.690190	2.711746	399391.950063	80.230000
1628.000000	162.790221	2.711328	399291.182165	80.280000
1629.000000	162.890226	2.711537	399341.566114	80.320000
1630.000000	162.990185	2.712059	399467.525987	80.350000
1631.000000	163.090147	2.711641	399366.758089	80.360000
1632.000000	163.190124	2.711641	399366.758089	80.360000
1633.000000	163.290165	2.712164	399492.717962	80.370000
1634.000000	163.390167	2.711328	399291.182165	80.370000
1635.000000	163.490121	2.711432	399316.374140	80.370000
1636.000000	163.590147	2.712164	399492.717962	80.370000
1637.000000	163.690170	2.710805	399165.222293	80.370000
1638.000000	163.790134	2.711641	399366.758089	80.370000
1639.000000	163.890164	2.711432	399316.374140	80.370000
1640.000000	163.990159	2.710910	399190.414267	80.400000
1641.000000	164.090136	2.712059	399467.525987	80.420000
1642.000000	164.190142	2.711014	399215.606242	80.470000
1643.000000	164.290132	2.711432	399316.374140	80.510000
1644.000000	164.390135	2.711432	399316.374140	80.560000
1645.000000	164.490122	2.711432	399316.374140	80.600000
1646.000000	164.590121	2.711014	399215.606242	80.600000
1647.000000	164.690108	2.711119	399240.798216	80.610000
1648.000000	164.790065	2.711223	399265.990191	80.600000
1649.000000	164.890081	2.711432	399316.374140	80.600000
1650.000000	164.990105	2.711223	399265.990191	80.610000
1651.000000	165.090041	2.710910	399190.414267	80.610000
1652.000000	165.190088	2.711432	399316.374140	80.610000
1653.000000	165.289839	2.711328	399291.182165	80.610000
1654.000000	165.390073	2.711328	399291.182165	80.610000
1655.000000	165.490091	2.711223	399265.990191	80.610000
1656.000000	165.590058	2.711746	399391.950063	80.640000
1657.000000	165.689996	2.710701	399140.030318	80.660000
1658.000000	165.790041	2.711432	399316.374140	80.690000
1659.000000	165.890049	2.711432	399316.374140	80.710000
1660.000000	165.990065	2.711119	399240.798216	80.730000
1661.000000	166.089978	2.711850	399417.142038	80.750000
1662.000000	166.190019	2.710805	399165.222293	80.770000
1663.000000	166.289984	2.711955	399442.334012	80.790000
1664.000000	166.389994	2.711223	399265.990191	80.820000
1665.000000	166.489978	2.711537	399341.566114	80.850000
1666.000000	166.589977	2.711328	399291.182165	80.870000
1667.000000	166.689991	2.711014	399215.606242	80.880000
1668.000000	166.789924	2.711223	399265.990191	80.880000
1669.000000	166.889972	2.711641	399366.758089	80.880000
1670.000000	166.989984	2.711850	399417.142038	80.880000
1671.000000	167.089919	2.710805	399165.222293	80.910000
1672.000000	167.189952	2.712268	399517.909936	80.910000
1673.000000	167.289934	2.711641	399366.758089	80.930000
1674.000000	167.389946	2.711537	399341.566114	80.960000
1675.000000	167.489767	2.711014	399215.606242	80.990000
1676.000000	167.589902	2.711850	399417.142038	81.010000
1677.000000	167.689930	2.710910	399190.414267	81.030000
1678.000000	167.789858	2.711014	399215.606242	81.050000
1679.000000	167.889875	2.710910	399190.414267	81.070000
1680.000000	167.989744	2.711119	399240.798216	81.100000
1681.000000	168.089873	2.711641	399366.758089	81.120000
1682.000000	168.189963	2.711328	399291.182165	81.130000
1683.000000	168.289846	2.711328	399291.182165	81.130000
1684.000000	168.389895	2.711223	399265.990191	81.130000
1685.000000	168.489885	2.711955	399442.334012	81.130000
1686.000000	168.589686	2.711014	399215.606242	81.140000
1687.000000	168.689843	2.711641	399366.758089	81.160000
1688.000000	168.789844	2.711850	399417.142038	81.180000
1689.000000	168.889726	2.711537	399341.566114	81.200000
1690.000000	168.989664	2.712268	399517.909936	81.210000
1691.000000	169.089701	2.711119	399240.798216	81.230000
1692.000000	169.189684	2.710805	399165.222293	81.240000
1693.000000	169.289682	2.711955	399442.334012	81.240000
1694.000000	169.389632	2.711537	399341.566114	81.240000
1695.000000	169.489675	2.711955	399442.334012	81.240000
1696.000000	169.589795	2.711641	399366.758089	81.250000
1697.000000	169.689789	2.711014	399215.606242	81.270000
1698.000000	169.789741	2.711746	399391.950063	81.290000
1699.000000	169.889832	2.710910	399190.414267	81.320000
1700.000000	169.989787	2.711223	399265.990191	81.360000
1701.000000	170.089726	2.711537	399341.566114	81.390000
1702.000000	170.189826	2.712059	399467.525987	81.390000
1703.000000	170.289781	2.711746	399391.950063	81.420000
1704.000000	170.389742	2.711014	399215.606242	81.440000
1705.000000	170.489758	2.711014	399215.606242	81.460000
1706.000000	170.589755	2.712373	399543.101911	81.480000
1707.000000	170.689721	2.710701	399140.030318	81.500000
1708.000000	170.789785	2.711223	399265.990191	81.510000
1709.000000	170.889726	2.712268	399517.909936	81.510000
1710.000000	170.989735	2.711014	399215.606242	81.510000
1711.000000	171.089744	2.711328	399291.182165	81.510000
1712.000000	171.189719	2.711955	399442.334012	81.530000
1713.000000	171.289588	2.711537	399341.566114	81.550000
1714.000000	171.389719	2.711014	399215.606242	81.570000
1715.000000	171.489680	2.711328	399291.182165	81.600000
1716.000000	171.589703	2.711641	399366.758089	81.630000
1717.000000	171.689687	2.711328	399291.182165	81.640000
1718.000000	171.789650	2.711223	399265.990191	81.640000
1719.000000	171.889716	2.712268	399517.909936	81.670000
1720.000000	171.989679	2.711850	399417.142038	81.690000
1721.000000	172.089673	2.711641	399366.758089	81.710000
1722.000000	172.189557	2.711432	399316.374140	81.740000
1723.000000	172.289640	2.711223	399265.990191	81.760000
1724.000000	172.389646	2.712164	399492.717962	81.760000
1725.000000	172.489649	2.711641	399366.758089	81.770000
1726.000000	172.589633	2.711537	399341.566114	81.770000
1727.000000	172.689626	2.711955	399442.334012	81.770000
1728.000000	172.789599	2.711746	399391.950063	81.770000
1729.000000	172.889621	2.711328	399291.182165	81.770000
1730.000000	172.989571	2.711746	399391.950063	81.770000
1731.000000	173.089570	2.712059	399467.525987	81.770000
1732.000000	173.189600	2.711537	399341.566114	81.790000
1733.000000	173.289590	2.710701	399140.030318	81.810000
1734.000000	173.389610	2.711537	399341.566114	81.840000
1735.000000	173.489581	2.711223	399265.990191	81.890000
1736.000000	173.589586	2.711328	399291.182165	81.940000
1737.000000	173.689585	2.711328	399291.182165	81.980000
1738.000000	173.789553	2.711328	399291.182165	82.010000
1739.000000	173.889555	2.711641	399366.758089	82.020000
1740.000000	173.989578	2.710596	399114.838344	82.020000
1741.000000	174.089492	2.711119	399240.798216	82.020000
1742.000000	174.189539	2.711014	399215.606242	82.020000
1743.000000	174.289472	2.711641	399366.758089	82.020000
1744.000000	174.389532	2.711537	399341.566114	82.030000
1745.000000	174.489475	2.711119	399240.798216	82.030000
1746.000000	174.589524	2.711328	399291.182165	82.030000
1747.000000	174.689507	2.711537	399341.566114	82.030000
1748.000000	174.789520	2.711537	399341.566114	82.060000
1749.000000	174.889482	2.710910	399190.414267	82.090000
1750.000000	174.989470	2.711432	399316.374140	82.130000
1751.000000	175.089442	2.710387	399064.454394	82.160000
1752.000000	175.189482	2.710910	399190.414267	82.210000
1753.000000	175.289312	2.711432	399316.374140	82.240000
1754.000000	175.389467	2.711432	399316.374140	82.270000
1755.000000	175.489491	2.710910	399190.414267	82.270000
1756.000000	175.589441	2.711328	399291.182165	82.270000
1757.000000	175.689432	2.711014	399215.606242	82.280000
1758.000000	175.789430	2.712059	399467.525987	82.280000
1759.000000	175.889419	2.710492	399089.646369	82.280000
1760.000000	175.989447	2.711328	399291.182165	82.280000
1761.000000	176.089399	2.711014	399215.606242	82.280000
1762.000000	176.189427	2.711537	399341.566114	82.280000
1763.000000	176.289426	2.711746	399391.950063	82.280000
1764.000000	176.389379	2.711328	399291.182165	82.280000
1765.000000	176.489333	2.711223	399265.990191	82.280000
1766.000000	176.589435	2.711955	399442.334012	82.300000
1767.000000	176.689371	2.711746	399391.950063	82.330000
1768.000000	176.789397	2.711014	399215.606242	82.370000
1769.000000	176.889333	2.711223	399265.990191	82.420000
1770.000000	176.989373	2.711119	399240.798216	82.460000
1771.000000	177.089366	2.710805	399165.222293	82.500000
1772.000000	177.189370	2.711850	399417.142038	82.530000
1773.000000	177.289323	2.711223	399265.990191	82.540000
1774.000000	177.389351	2.711432	399316.374140	82.540000
1775.000000	177.489396	2.711746	399391.950063	82.540000
1776.000000	177.589346	2.711328	399291.182165	82.540000
1777.000000	177.689341	2.711119	399240.798216	82.540000
1778.000000	177.789364	2.711119	399240.798216	82.540000
1779.000000	177.889337	2.711223	399265.990191	82.550000
1780.000000	177.989305	2.711432	399316.374140	82.550000
1781.000000	178.089247	2.711119	399240.798216	82.550000
1782.000000	178.189284	2.711328	399291.182165	82.570000
1783.000000	178.289297	2.711432	399316.374140	82.600000
1784.000000	178.389309	2.710805	399165.222293	82.650000
1785.000000	178.489283	2.711119	399240.798216	82.700000
1786.000000	178.589287	2.711014	399215.606242	82.750000
1787.000000	178.689269	2.711014	399215.606242	82.780000
1788.000000	178.789242	2.711014	399215.606242	82.780000
1789.000000	178.889111	2.711223	399265.990191	82.780000
1790.000000	178.989248	2.711014	399215.606242	82.790000
1791.000000	179.089202	2.710178	399014.070445	82.790000
1792.000000	179.189240	2.711537	399341.566114	82.790000
1793.000000	179.289233	2.710910	399190.414267	82.790000
1794.000000	179.389236	2.711223	399265.990191	82.790000
1795.000000	179.489213	2.711119	399240.798216	82.790000
1796.000000	179.589208	2.710910	399190.414267	82.790000
1797.000000	179.689266	2.711119	399240.798216	82.800000
1798.000000	179.789183	2.711014	399215.606242	82.820000
1799.000000	179.889226	2.711119	399240.798216	82.840000
1800.000000	179.989140	2.711014	399215.606242	82.860000
